Time[s],Volt[V],ReceivedPower[dBm],1step_diff[dB]
0.25,0.23485999999999999,-68.2592,0.31520000000000437
0.49999999999999994,0.23879999999999998,-67.944,1.137599999999992
0.7500000000000001,0.22458,-69.0816,2.5360000000000014
1.0000000000000002,0.25628,-66.5456,2.407999999999987
1.2500000000000004,0.28637999999999997,-64.1376,0.5608000000000075
1.5000000000000007,0.29339,-63.5768,2.4440000000000097
1.7500000000000009,0.26284,-66.02080000000001,1.5215999999999923
2.000000000000001,0.24382,-67.5424,1.4384000000000015
2.25,0.22583999999999999,-68.9808,3.1704000000000008
2.499999999999999,0.26547,-65.8104,2.593599999999995
2.7499999999999982,0.29789,-63.216800000000006,0.5776000000000039
2.9999999999999973,0.30511,-62.6392,1.6159999999999997
3.2499999999999964,0.28491,-64.2552,1.0176000000000016
3.4999999999999956,0.29763,-63.2376,0.789599999999993
3.7499999999999947,0.28776,-64.0272,0.15040000000000475
3.999999999999994,0.28588,-64.1776,0.6167999999999978
4.249999999999993,0.29359,-63.5608,0.24799999999999756
4.499999999999992,0.29669,-63.3128,2.165600000000005
4.749999999999991,0.32376,-61.1472,0.8263999999999925
4.99999999999999,0.33409000000000005,-60.320800000000006,0.47039999999999793
5.249999999999989,0.32821,-60.7912,0.9655999999999949
5.4999999999999885,0.31614000000000003,-61.7568,0.2808000000000064
5.749999999999988,0.31263,-62.037600000000005,1.1608000000000018
5.999999999999987,0.32714,-60.8768,0.6071999999999989
6.249999999999986,0.33472999999999997,-60.269600000000004,0.2527999999999935
6.499999999999985,0.33157000000000003,-60.5224,0.5304000000000073
6.749999999999984,0.32494,-61.052800000000005,1.5535999999999959
6.999999999999983,0.30552,-62.6064,0.10480000000000445
7.249999999999982,0.30421,-62.711200000000005,1.4095999999999975
7.499999999999981,0.28659,-64.1208,0.2383999999999986
7.7499999999999805,0.28361000000000003,-64.3592,0.039199999999993906
7.99999999999998,0.28312,-64.3984,0.731199999999987
8.249999999999982,0.29226,-63.66720000000001,1.8511999999999915
8.499999999999986,0.26911999999999997,-65.5184,2.9687999999999946
8.74999999999999,0.30623,-62.549600000000005,3.206399999999995
8.999999999999993,0.26615,-65.756,0.8007999999999953
9.249999999999996,0.27615999999999996,-64.9552,1.2456000000000031
9.5,0.29173,-63.7096,2.3471999999999937
9.750000000000004,0.32107,-61.36240000000001,0.7751999999999981
10.000000000000007,0.31138000000000005,-62.137600000000006,0.25919999999999277
10.25000000000001,0.30814,-62.3968,0.6280000000000072
10.500000000000014,0.30029,-63.024800000000006,0.18560000000000798
10.750000000000018,0.30261,-62.8392,0.2791999999999959
11.000000000000021,0.3061,-62.56,0.1127999999999929
11.250000000000025,0.30751,-62.44720000000001,0.28880000000000194
11.500000000000028,0.31111999999999995,-62.15840000000001,1.1303999999999874
11.750000000000032,0.29699000000000003,-63.288799999999995,1.0056000000000012
12.000000000000036,0.28442,-64.2944,0.6343999999999923
12.250000000000039,0.29235,-63.660000000000004,0.5167999999999964
12.500000000000043,0.28589000000000003,-64.1768,0.23119999999999408
12.750000000000046,0.2887799999999999,-63.945600000000006,0.008800000000000807
13.00000000000005,0.28867000000000004,-63.95440000000001,0.7088000000000108
13.250000000000053,0.29753,-63.245599999999996,0.7239999999999895
13.500000000000057,0.30657999999999996,-62.52160000000001,0.3095999999999961
13.75000000000006,0.30271,-62.8312,1.240000000000002
14.000000000000064,0.28720999999999997,-64.0712,0.7432000000000016
14.250000000000068,0.2965,-63.328,0.8159999999999954
14.500000000000071,0.30670000000000003,-62.51200000000001,1.0655999999999963
14.750000000000075,0.29338000000000003,-63.577600000000004,0.9296000000000078
15.000000000000078,0.30500000000000005,-62.647999999999996,0.28000000000000824
15.250000000000082,0.3015,-62.928000000000004,0.43199999999999505
15.500000000000085,0.2961,-63.36,0.08559999999999235
15.750000000000089,0.29716999999999993,-63.27440000000001,1.2327999999999903
16.000000000000092,0.28175999999999995,-64.5072,1.427199999999992
16.250000000000096,0.2996,-63.080000000000005,1.2384000000000057
16.5000000000001,0.31507999999999997,-61.8416,0.8408000000000015
16.750000000000103,0.30456999999999995,-62.6824,0.21679999999999922
17.000000000000107,0.30728000000000005,-62.4656,0.6920000000000073
17.25000000000011,0.29863,-63.15760000000001,0.8855999999999895
17.500000000000114,0.28756,-64.0432,1.4583999999999975
17.750000000000117,0.26933,-65.5016,1.4543999999999926
18.00000000000012,0.28751,-64.0472,0.007199999999997431
18.250000000000124,0.28741999999999995,-64.0544,0.3704000000000036
18.500000000000128,0.29205000000000003,-63.684,2.033600000000007
18.75000000000013,0.26663,-65.7176,0.9551999999999907
19.000000000000135,0.25469,-66.6728,3.740799999999993
19.25000000000014,0.30145,-62.932,0.9816000000000003
19.500000000000142,0.28918000000000005,-63.9136,0.05200000000000671
19.750000000000146,0.28853,-63.96560000000001,1.511199999999988
20.00000000000015,0.26964,-65.4768,0.036000000000001364
20.250000000000153,0.26919,-65.5128,2.2760000000000105
20.500000000000156,0.24074,-67.78880000000001,4.219200000000001
20.75000000000016,0.29348,-63.56960000000001,0.2639999999999958
21.000000000000163,0.29018,-63.833600000000004,0.4264000000000081
21.250000000000167,0.29551000000000005,-63.407199999999996,2.5504000000000033
21.50000000000017,0.26363,-65.9576,1.3735999999999962
21.750000000000174,0.2808,-64.584,3.7256
22.000000000000178,0.23423,-68.3096,3.2224000000000075
22.25000000000018,0.27451,-65.0872,0.7728000000000037
22.500000000000185,0.28417,-64.31439999999999,2.4336000000000126
22.75000000000019,0.25375000000000003,-66.748,0.020799999999994156
23.000000000000192,0.25349,-66.7688,1.7319999999999993
23.250000000000195,0.27514,-65.0368,2.799999999999997
23.5000000000002,0.24014000000000002,-67.8368,4.156799999999997
23.750000000000203,0.2921,-63.68,1.945600000000006
24.000000000000206,0.26778,-65.6256,1.387200000000007
24.25000000000021,0.28512,-64.2384,1.7383999999999986
24.500000000000213,0.26339,-65.9768,1.6256000000000057
24.750000000000217,0.24306999999999998,-67.6024,3.4128000000000043
25.00000000000022,0.28573,-64.1896,0.7815999999999974
25.250000000000224,0.2955,-63.408,0.5647999999999982
25.500000000000227,0.28844000000000003,-63.9728,0.9239999999999995
25.75000000000023,0.27689,-64.8968,1.108000000000004
26.000000000000234,0.26304,-66.0048,0.4216000000000122
26.250000000000238,0.26831,-65.58319999999999,0.7591999999999928
26.50000000000024,0.2778,-64.824,2.675200000000004
26.750000000000245,0.24436,-67.4992,1.8584000000000032
27.00000000000025,0.26758999999999994,-65.6408,1.4231999999999942
27.250000000000252,0.28538,-64.2176,0.1887999999999863
27.500000000000256,0.28302,-64.40639999999999,1.3863999999999876
27.75000000000026,0.30035,-63.02,2.8887999999999963
28.000000000000263,0.26424000000000003,-65.9088,0.7823999999999955
28.250000000000266,0.27402000000000004,-65.1264,0.20319999999999538
28.50000000000027,0.27148000000000005,-65.3296,2.8415999999999997
28.750000000000274,0.23596,-68.1712,2.951999999999998
29.000000000000277,0.27286,-65.2192,2.2168000000000063
29.25000000000028,0.24515000000000003,-67.436,2.3712000000000018
29.500000000000284,0.21551,-69.80720000000001,3.303200000000004
29.750000000000288,0.25680000000000003,-66.504,4.1503999999999905
30.00000000000029,0.20492,-70.6544,0.8071999999999946
30.250000000000295,0.19483,-71.46159999999999,5.3367999999999824
30.5000000000003,0.26154,-66.12480000000001,1.2871999999999844
30.750000000000302,0.24545000000000003,-67.41199999999999,3.189600000000013
31.000000000000306,0.20558,-70.6016,1.4200000000000017
31.25000000000031,0.22333000000000003,-69.1816,1.4232000000000085
31.500000000000313,0.20553999999999997,-70.60480000000001,0.8968000000000131
31.750000000000316,0.21675,-69.708,1.2511999999999972
32.00000000000032,0.23238999999999996,-68.4568,0.1687999999999903
32.250000000000306,0.23028000000000004,-68.62559999999999,1.8559999999999803
32.50000000000029,0.25348,-66.76960000000001,0.147199999999998
32.75000000000028,0.25164,-66.91680000000001,2.9255999999999887
33.00000000000026,0.21507,-69.8424,3.200800000000001
33.25000000000025,0.25508,-66.6416,2.529599999999988
33.500000000000234,0.2867,-64.11200000000001,0.43359999999999843
33.75000000000022,0.28128000000000003,-64.54560000000001,3.9503999999999877
34.000000000000206,0.2319,-68.496,3.974400000000003
34.25000000000019,0.28158000000000005,-64.52159999999999,0.9224000000000103
34.50000000000018,0.27005,-65.444,0.421599999999998
34.75000000000016,0.26477999999999996,-65.8656,0.0367999999999995
35.00000000000015,0.26524000000000003,-65.8288,2.058399999999992
35.250000000000135,0.29097,-63.77040000000001,0.6864000000000061
35.50000000000012,0.29955,-63.084,0.6231999999999971
35.75000000000011,0.30734,-62.460800000000006,0.3288000000000011
36.00000000000009,0.31145,-62.132000000000005,0.46399999999999864
36.25000000000008,0.30565000000000003,-62.596000000000004,0.8255999999999943
36.500000000000064,0.29533000000000004,-63.4216,2.41279999999999
36.75000000000005,0.32548999999999995,-61.00880000000001,0.3399999999999963
37.000000000000036,0.32123999999999997,-61.348800000000004,1.039199999999994
37.25000000000002,0.30825,-62.388,1.103999999999992
37.50000000000001,0.32205,-61.284000000000006,0.2639999999999958
37.74999999999999,0.31875,-61.548,1.034400000000005
37.99999999999998,0.30582000000000004,-62.58240000000001,0.03440000000000509
38.249999999999964,0.30625,-62.548,0.14399999999999835
38.49999999999995,0.30445,-62.692,0.7760000000000034
38.749999999999936,0.31415000000000004,-61.916,1.255200000000002
38.99999999999992,0.29846000000000006,-63.1712,0.4632000000000005
39.24999999999991,0.30425,-62.708,0.42959999999999354
39.49999999999989,0.30962,-62.278400000000005,0.34720000000000084
39.74999999999988,0.30528,-62.625600000000006,1.3368000000000038
39.999999999999865,0.32199,-61.2888,2.593600000000002
40.24999999999985,0.28957,-63.882400000000004,0.3592000000000013
40.49999999999984,0.29406000000000004,-63.5232,0.8487999999999971
40.74999999999982,0.30466999999999994,-62.674400000000006,1.7992000000000061
40.99999999999981,0.32716,-60.8752,4.0760000000000005
41.249999999999794,0.27620999999999996,-64.9512,1.9695999999999998
41.49999999999978,0.30083000000000004,-62.9816,0.4503999999999948
41.749999999999766,0.30645999999999995,-62.531200000000005,0.39520000000000266
41.99999999999975,0.3114,-62.136,1.0376000000000047
42.24999999999974,0.29843000000000003,-63.17360000000001,0.7351999999999919
42.49999999999972,0.28924000000000005,-63.9088,0.7768000000000015
42.74999999999971,0.29895000000000005,-63.132,0.4696000000000069
42.999999999999694,0.29308,-63.601600000000005,0.07519999999999527
43.24999999999968,0.29402,-63.52640000000001,0.08960000000000434
43.499999999999666,0.29513999999999996,-63.436800000000005,0.6711999999999989
43.74999999999965,0.28674999999999995,-64.108,0.16960000000000264
43.99999999999964,0.28463,-64.2776,0.7647999999999939
44.24999999999962,0.27507000000000004,-65.0424,0.05760000000000787
44.49999999999961,0.27435,-65.10000000000001,2.519200000000005
44.749999999999595,0.30584,-62.5808,0.681599999999996
44.99999999999958,0.29732000000000003,-63.2624,1.318399999999997
45.24999999999957,0.31379999999999997,-61.944,2.8903999999999996
45.49999999999955,0.27767,-64.8344,1.6343999999999994
45.74999999999954,0.2981,-63.2,0.6807999999999979
45.999999999999524,0.30660999999999994,-62.519200000000005,0.16720000000000113
46.24999999999951,0.30870000000000003,-62.352000000000004,1.1888000000000005
46.499999999999496,0.32355999999999996,-61.1632,1.0823999999999998
46.74999999999948,0.31003000000000003,-62.2456,1.0056000000000012
46.99999999999947,0.3226,-61.24,0.671999999999997
47.24999999999945,0.31420000000000003,-61.912,0.1447999999999965
47.49999999999944,0.31239000000000006,-62.056799999999996,0.9719999999999942
47.749999999999424,0.32454,-61.0848,0.9831999999999965
47.99999999999941,0.31225,-62.068,0.004799999999995919
48.249999999999396,0.31231,-62.0632,1.0120000000000005
48.49999999999938,0.32496,-61.0512,0.793600000000005
48.74999999999937,0.31504000000000004,-61.844800000000006,1.0088000000000008
48.99999999999935,0.30243,-62.85360000000001,0.6359999999999957
49.24999999999934,0.29447999999999996,-63.4896,2.901599999999995
49.499999999999325,0.25821,-66.3912,0.5503999999999962
49.74999999999931,0.26509,-65.8408,0.6192000000000064
49.9999999999993,0.25735,-66.46000000000001,1.3760000000000048
50.24999999999928,0.27454999999999996,-65.084,1.2376000000000005
50.49999999999927,0.25908000000000003,-66.3216,2.687199999999997
50.749999999999254,0.29267,-63.63440000000001,0.16639999999999588
50.99999999999924,0.29059,-63.8008,1.2392000000000039
51.249999999999226,0.30608,-62.5616,0.18959999999999866
51.49999999999921,0.30371000000000004,-62.7512,0.17279999999999518
51.7499999999992,0.30587,-62.5784,0.49280000000000257
51.99999999999918,0.31203,-62.0856,0.11200000000000898
52.24999999999917,0.31063,-62.19760000000001,0.9671999999999912
52.499999999999154,0.29853999999999997,-63.1648,0.6983999999999924
52.74999999999914,0.30727,-62.46640000000001,0.10400000000000631
52.999999999999126,0.30857,-62.3624,0.3872
53.24999999999911,0.30373,-62.7496,0.779200000000003
53.4999999999991,0.29399,-63.528800000000004,2.577600000000004
53.74999999999908,0.26176999999999995,-66.10640000000001,1.9816000000000145
53.99999999999907,0.28654,-64.1248,1.5575999999999937
54.249999999999055,0.30601,-62.5672,2.9448000000000008
54.49999999999904,0.2692,-65.512,0.495199999999997
54.74999999999903,0.27539,-65.0168,1.343999999999994
54.99999999999901,0.29219,-63.67280000000001,0.21679999999999922
55.249999999999,0.28948,-63.88960000000001,2.006399999999992
55.499999999998984,0.2644,-65.896,0.4719999999999942
55.74999999999897,0.27030000000000004,-65.424,0.8255999999999943
55.999999999998956,0.25998,-66.2496,0.6127999999999929
56.24999999999894,0.26764,-65.63680000000001,0.9391999999999996
56.49999999999893,0.27938,-64.69760000000001,2.1695999999999884
56.74999999999891,0.25226000000000004,-66.8672,1.1776000000000124
56.9999999999989,0.23754,-68.04480000000001,2.0472000000000037
57.249999999998884,0.26313,-65.9976,1.6688000000000045
57.49999999999887,0.28398999999999996,-64.3288,2.235200000000006
57.749999999998856,0.25605,-66.56400000000001,0.008799999999993702
57.99999999999884,0.25594,-66.5728,1.3800000000000097
58.24999999999883,0.27319,-65.19279999999999,0.7400000000000091
58.49999999999881,0.26393999999999995,-65.9328,0.7832000000000079
58.7499999999988,0.27373,-65.14959999999999,2.1975999999999942
58.999999999998785,0.3012,-62.952,1.382400000000004
59.24999999999877,0.28392,-64.3344,0.940800000000003
59.49999999999876,0.29568000000000005,-63.3936,1.7568000000000055
59.74999999999874,0.27372,-65.1504,0.6264000000000038
59.99999999999873,0.26589,-65.77680000000001,2.955200000000012
60.249999999998714,0.30283000000000004,-62.8216,0.5159999999999911
60.4999999999987,0.30928,-62.305600000000005,2.503999999999998
60.749999999998685,0.27798,-64.8096,0.5319999999999965
60.99999999999867,0.27133,-65.3416,0.6063999999999936
61.24999999999866,0.27891,-64.7352,0.7000000000000028
61.49999999999864,0.28765999999999997,-64.0352,0.819199999999995
61.74999999999863,0.29789999999999994,-63.21600000000001,0.8104000000000084
61.999999999998614,0.30802999999999997,-62.4056,1.837600000000002
62.2499999999986,0.28506,-64.2432,0.47039999999999793
62.499999999998586,0.29094000000000003,-63.772800000000004,1.0279999999999987
62.74999999999857,0.30379,-62.744800000000005,0.7952000000000012
62.99999999999856,0.29385,-63.540000000000006,1.5415999999999883
63.24999999999854,0.27458,-65.0816,0.5439999999999969
63.49999999999853,0.28138,-64.5376,0.9335999999999984
63.749999999998515,0.29305000000000003,-63.604,0.441599999999994
63.9999999999985,0.29857,-63.162400000000005,0.24399999999999977
64.2499999999985,0.30162,-62.918400000000005,0.2640000000000029
64.49999999999848,0.30491999999999997,-62.6544,0.8207999999999984
64.74999999999847,0.29466000000000003,-63.4752,2.000799999999998
64.99999999999845,0.26965,-65.476,1.9000000000000057
65.24999999999844,0.2459,-67.376,1.4103999999999957
65.49999999999842,0.26352999999999993,-65.96560000000001,1.7416000000000054
65.74999999999841,0.2853,-64.224,0.1687999999999903
65.9999999999984,0.28319,-64.3928,0.08480000000000132
66.24999999999838,0.28213,-64.4776,2.8488000000000113
66.49999999999837,0.24652,-67.3264,0.4072000000000031
66.74999999999835,0.25161,-66.9192,1.4536000000000087
66.99999999999834,0.26978,-65.4656,0.48320000000001073
67.24999999999832,0.26374,-65.9488,2.5816000000000017
67.49999999999831,0.29601,-63.367200000000004,3.9391999999999925
67.7499999999983,0.24677000000000002,-67.3064,0.4183999999999912
67.99999999999828,0.252,-66.888,0.8855999999999966
68.24999999999827,0.24093,-67.7736,2.3880000000000052
68.49999999999825,0.27078,-65.3856,2.8392000000000053
68.74999999999824,0.23529,-68.2248,1.2984000000000009
68.99999999999822,0.21906000000000003,-69.5232,1.1672000000000082
69.24999999999821,0.23365,-68.356,1.367999999999995
69.4999999999982,0.25075000000000003,-66.988,4.66879999999999
69.74999999999818,0.19239,-71.65679999999999,1.4183999999999912
69.99999999999817,0.21012,-70.2384,1.9624000000000024
70.24999999999815,0.23465000000000003,-68.276,3.5367999999999995
70.49999999999814,0.27886,-64.7392,5.261600000000001
70.74999999999812,0.21309,-70.0008,1.8735999999999962
70.99999999999811,0.18967,-71.8744,5.1488000000000085
71.2499999999981,0.12531,-77.0232,3.9616000000000042
71.49999999999808,0.17482999999999999,-73.0616,3.812000000000012
71.74999999999807,0.12718,-76.87360000000001,0.7912000000000177
71.99999999999805,0.13707,-76.08239999999999,2.637600000000006
72.24999999999804,0.1041,-78.72,3.0472000000000037
72.49999999999802,0.14218999999999998,-75.6728,0.5600000000000165
72.74999999999801,0.13518999999999998,-76.23280000000001,0.7072000000000145
72.999999999998,0.14403000000000002,-75.5256,0.4720000000000084
73.24999999999798,0.13813,-75.9976,0.4759999999999991
73.49999999999797,0.14407999999999999,-75.5216,1.6312000000000069
73.74999999999795,0.16446999999999998,-73.8904,3.755200000000002
73.99999999999794,0.11753,-77.6456,2.5608000000000004
74.24999999999793,0.14954,-75.0848,0.3295999999999992
74.49999999999791,0.15366,-74.7552,1.8735999999999962
74.7499999999979,0.17708000000000002,-72.8816,1.0255999999999972
74.99999999999788,0.1899,-71.85600000000001,0.3312000000000097
75.24999999999787,0.19404,-71.5248,0.5808000000000106
75.49999999999785,0.18678,-72.10560000000001,3.4799999999999898
75.74999999999784,0.14328,-75.5856,3.7864000000000004
75.99999999999783,0.19061,-71.7992,0.49040000000000816
76.24999999999781,0.18447999999999998,-72.28960000000001,1.8896000000000015
76.4999999999978,0.2081,-70.4,2.6887999999999863
76.74999999999778,0.17448999999999998,-73.08879999999999,2.455999999999989
76.99999999999777,0.20519000000000004,-70.6328,6.517599999999987
77.24999999999775,0.12372000000000001,-77.15039999999999,4.7927999999999855
77.49999999999774,0.18363000000000002,-72.3576,1.1799999999999926
77.74999999999773,0.16888,-73.5376,0.6255999999999915
77.99999999999771,0.1767,-72.912,2.6504000000000048
78.2499999999977,0.20983000000000002,-70.2616,5.392799999999994
78.49999999999768,0.14242000000000002,-75.6544,0.003199999999992542
78.74999999999767,0.14246,-75.6512,1.23599999999999
78.99999999999766,0.12701,-76.88719999999999,1.0479999999999876
79.24999999999764,0.14011,-75.8392,2.141599999999997
79.49999999999763,0.16687999999999997,-73.69760000000001,1.3559999999999945
79.74999999999761,0.14992999999999998,-75.0536,1.416799999999995
79.9999999999976,0.13222,-76.4704,4.372
80.24999999999758,0.18687,-72.0984,0.5416000000000025
80.49999999999757,0.19363999999999998,-71.5568,0.34480000000000643
80.74999999999756,0.18933,-71.9016,3.7143999999999977
80.99999999999754,0.23576000000000003,-68.1872,2.883200000000002
81.24999999999753,0.19971999999999998,-71.0704,1.4543999999999926
81.49999999999751,0.18153999999999998,-72.5248,3.2712000000000074
81.7499999999975,0.14065,-75.796,2.3144000000000062
81.99999999999748,0.16958,-73.4816,1.661600000000007
82.24999999999747,0.19035000000000002,-71.82,0.04560000000000741
82.49999999999746,0.18978,-71.8656,0.22240000000000748
82.74999999999744,0.19256,-71.6432,2.995199999999997
82.99999999999743,0.22999999999999998,-68.648,0.5951999999999913
83.24999999999741,0.23743999999999996,-68.0528,2.7807999999999993
83.4999999999974,0.2722,-65.272,1.2232000000000056
83.74999999999739,0.28749,-64.0488,0.9295999999999935
83.99999999999737,0.27587,-64.9784,0.3527999999999878
84.24999999999736,0.28028,-64.6256,0.34719999999998663
84.49999999999734,0.27594,-64.97279999999999,0.7920000000000016
84.74999999999733,0.28584000000000004,-64.18079999999999,1.583200000000005
84.99999999999731,0.26605,-65.764,3.200800000000001
85.2499999999973,0.22603999999999996,-68.9648,1.975999999999999
85.49999999999729,0.25073999999999996,-66.9888,2.6247999999999934
85.74999999999727,0.28355,-64.364,1.8663999999999987
85.99999999999726,0.26022,-66.2304,6.5519999999999925
86.24999999999724,0.17831999999999998,-72.7824,1.1759999999999877
86.49999999999723,0.19301999999999997,-71.60640000000001,0.055999999999983174
86.74999999999721,0.19232,-71.66239999999999,1.0023999999999944
86.9999999999972,0.20484999999999998,-70.66,7.129600000000011
87.24999999999719,0.11573,-77.78960000000001,5.2672000000000025
87.49999999999717,0.18157,-72.5224,0.057599999999993656
87.74999999999716,0.18084999999999998,-72.58,3.028800000000004
87.99999999999714,0.14299,-75.6088,1.9080000000000013
88.24999999999713,0.11914,-77.5168,3.190399999999997
88.49999999999712,0.15902,-74.3264,4.095199999999991
88.7499999999971,0.10783000000000001,-78.4216,1.1328000000000031
88.99999999999709,0.12199,-77.2888,0.5503999999999962
89.24999999999707,0.12886999999999998,-76.7384,2.251199999999997
89.49999999999706,0.10072999999999999,-78.9896,2.1343999999999994
89.74999999999704,0.12741000000000002,-76.8552,1.4087999999999994
89.99999999999703,0.14502,-75.4464,1.4984000000000037
90.24999999999702,0.16375,-73.948,6.663999999999987
90.499999999997,0.24705000000000005,-67.284,2.716000000000008
90.74999999999699,0.281,-64.568,0.5431999999999988
90.99999999999697,0.28779000000000005,-64.0248,2.019199999999998
91.24999999999696,0.31303000000000003,-62.0056,0.588799999999992
91.49999999999694,0.32039,-61.41680000000001,1.4000000000000057
91.74999999999693,0.33788999999999997,-60.0168,0.6319999999999979
91.99999999999692,0.32999,-60.6488,0.8952000000000027
92.2499999999969,0.3188,-61.544000000000004,1.0335999999999927
92.49999999999689,0.30588000000000004,-62.5776,2.0744000000000042
92.74999999999687,0.27995000000000003,-64.652,2.4688000000000017
92.99999999999686,0.24908999999999998,-67.1208,7.16879999999999
93.24999999999685,0.15948,-74.2896,2.563999999999993
93.49999999999683,0.19153,-71.7256,0.9872000000000014
93.74999999999682,0.20387,-70.7384,5.2864
93.9999999999968,0.26995,-65.452,0.2184000000000026
94.24999999999679,0.26722,-65.6704,0.6047999999999973
94.49999999999677,0.25966,-66.2752,1.8751999999999924
94.74999999999676,0.2831,-64.4,0.4391999999999996
94.99999999999675,0.27761,-64.8392,0.12480000000000757
95.24999999999673,0.27917000000000003,-64.7144,0.10559999999999548
95.49999999999672,0.28049,-64.6088,1.9207999999999998
95.7499999999967,0.3045,-62.688,0.3936000000000064
95.99999999999669,0.29957999999999996,-63.08160000000001,2.289600000000007
96.24999999999667,0.3282,-60.792,0.4151999999999987
96.49999999999666,0.33338999999999996,-60.3768,0.06239999999999668
96.74999999999665,0.33416999999999997,-60.314400000000006,0.6024000000000029
96.99999999999663,0.32663999999999993,-60.91680000000001,0.49040000000000816
97.24999999999662,0.33277,-60.4264,0.3423999999999978
97.4999999999966,0.32849000000000006,-60.7688,0.17919999999999447
97.74999999999659,0.33073,-60.589600000000004,0.05040000000000333
97.99999999999658,0.33136,-60.5392,0.13280000000000314
98.24999999999656,0.3297,-60.672000000000004,0.7696000000000041
98.49999999999655,0.33932,-59.9024,1.1503999999999976
98.74999999999653,0.3537,-58.752,1.5967999999999947
98.99999999999652,0.33374000000000004,-60.3488,0.39039999999999964
99.2499999999965,0.33862000000000003,-59.9584,2.4647999999999968
99.49999999999649,0.36943000000000004,-57.4936,0.4223999999999961
99.74999999999648,0.37471,-57.071200000000005,1.1432000000000002
99.99999999999646,0.36041999999999996,-58.214400000000005,0.31920000000000215
100.24999999999645,0.36441,-57.8952,0.1168000000000049
100.49999999999643,0.36587000000000003,-57.7784,0.7488000000000028
100.74999999999642,0.35651,-58.5272,0.46399999999999864
100.9999999999964,0.36231,-58.0632,1.4664000000000001
101.24999999999639,0.38064,-56.5968,1.8168000000000006
101.49999999999638,0.35792999999999997,-58.4136,0.6351999999999975
101.74999999999636,0.34998999999999997,-59.0488,1.9079999999999941
101.99999999999635,0.37384,-57.140800000000006,1.0775999999999897
102.24999999999633,0.36037,-58.218399999999995,0.9767999999999972
102.49999999999632,0.37258,-57.2416,1.7424000000000035
102.7499999999963,0.35079999999999995,-58.984,1.2591999999999999
102.99999999999629,0.36654,-57.7248,1.582400000000007
103.24999999999628,0.34675999999999996,-59.30720000000001,0.7000000000000028
103.49999999999626,0.33801,-60.00720000000001,0.6632000000000104
103.74999999999625,0.3463,-59.344,0.8455999999999975
103.99999999999623,0.33573000000000003,-60.1896,0.705600000000004
104.24999999999622,0.32691,-60.8952,0.6152000000000015
104.4999999999962,0.3346,-60.28,0.8288000000000011
104.74999999999619,0.32424,-61.1088,1.5719999999999956
104.99999999999618,0.30459,-62.6808,4.510399999999997
105.24999999999616,0.24821,-67.1912,4.264799999999994
105.49999999999615,0.30152,-62.9264,4.524799999999992
105.74999999999613,0.35808,-58.40160000000001,0.37760000000000815
105.99999999999612,0.3628,-58.024,1.406400000000005
106.2499999999961,0.34521999999999997,-59.430400000000006,3.8656000000000006
106.49999999999609,0.2969,-63.29600000000001,2.263999999999996
106.74999999999608,0.2686,-65.56,4.4056
106.99999999999606,0.32367,-61.1544,1.2104
107.24999999999605,0.3388,-59.944,1.3192000000000021
107.49999999999604,0.32231,-61.263200000000005,1.0079999999999956
107.74999999999602,0.30971000000000004,-62.2712,0.4952000000000041
107.999999999996,0.3159,-61.775999999999996,1.166400000000003
108.24999999999599,0.30132,-62.9424,2.3656000000000006
108.49999999999598,0.33089,-60.5768,4.354399999999998
108.74999999999596,0.38532,-56.2224,1.8111999999999995
108.99999999999595,0.36268,-58.0336,0.6448000000000107
109.24999999999594,0.35462,-58.67840000000001,2.0671999999999926
109.49999999999592,0.32877999999999996,-60.7456,1.7192000000000007
109.74999999999591,0.35026999999999997,-59.0264,0.3567999999999998
109.9999999999959,0.35473,-58.6696,0.9031999999999982
110.24999999999588,0.36601999999999996,-57.766400000000004,0.05919999999999703
110.49999999999586,0.36528,-57.8256,2.3663999999999987
110.74999999999585,0.3357,-60.192,0.833599999999997
110.99999999999584,0.34612,-59.3584,0.14399999999999835
111.24999999999582,0.34792,-59.214400000000005,3.613599999999998
111.49999999999581,0.30274999999999996,-62.828,2.3207999999999984
111.7499999999958,0.33175999999999994,-60.507200000000005,1.200800000000001
111.99999999999578,0.31675,-61.708000000000006,0.8504000000000005
112.24999999999577,0.32737999999999995,-60.857600000000005,1.8712000000000018
112.49999999999575,0.35076999999999997,-58.9864,1.9063999999999979
112.74999999999574,0.32694,-60.8928,0.4223999999999961
112.99999999999572,0.33221999999999996,-60.470400000000005,1.7559999999999931
113.24999999999571,0.31027,-62.2264,4.544000000000011
113.4999999999957,0.25347,-66.77040000000001,0.946399999999997
113.74999999999568,0.24164,-67.7168,2.099199999999996
113.99999999999567,0.21540000000000004,-69.816,0.6944000000000017
114.24999999999565,0.22408,-69.1216,3.284800000000004
114.49999999999564,0.18302000000000002,-72.4064,1.9279999999999973
114.74999999999562,0.15892,-74.3344,0.08559999999999945
114.99999999999561,0.15785,-74.42,5.2864
115.2499999999956,0.22393000000000002,-69.1336,2.804000000000002
115.49999999999558,0.18888,-71.9376,0.25200000000000955
115.74999999999557,0.19203,-71.6856,4.209600000000009
115.99999999999555,0.13940999999999998,-75.8952,1.8736000000000104
116.24999999999554,0.16282999999999997,-74.02159999999999,1.4447999999999865
116.49999999999552,0.18089,-72.5768,3.9208
116.74999999999551,0.13188,-76.4976,6.601600000000005
116.9999999999955,0.2144,-69.896,2.6111999999999966
117.24999999999548,0.24704,-67.2848,0.17760000000001241
117.49999999999547,0.24926000000000004,-67.10719999999999,0.9536000000000087
117.74999999999545,0.23734000000000002,-68.0608,4.68
117.99999999999544,0.29584,-63.3808,3.7439999999999927
118.24999999999542,0.24904,-67.1248,2.8719999999999857
118.49999999999541,0.28493999999999997,-64.25280000000001,2.084799999999987
118.7499999999954,0.25888,-66.3376,2.2623999999999853
118.99999999999538,0.28715999999999997,-64.07520000000001,1.6584000000000003
119.24999999999537,0.26643,-65.73360000000001,2.760000000000012
119.49999999999535,0.30093000000000003,-62.9736,1.1328000000000102
119.74999999999534,0.28677,-64.10640000000001,3.9296000000000078
119.99999999999532,0.33588999999999997,-60.1768,0.3272000000000048
120.24999999999531,0.33998000000000006,-59.849599999999995,1.4376000000000033
120.4999999999953,0.32201,-61.2872,0.2360000000000042
120.74999999999528,0.31906,-61.5232,3.1696000000000026
120.99999999999527,0.35868,-58.3536,0.5232000000000028
121.24999999999525,0.35214,-58.8768,0.41039999999999566
121.49999999999524,0.35727,-58.46640000000001,2.1703999999999937
121.74999999999523,0.33014,-60.6368,1.3215999999999966
121.99999999999521,0.34666,-59.315200000000004,0.29519999999999413
122.2499999999952,0.35035,-59.02000000000001,1.0999999999999943
122.49999999999518,0.3366,-60.120000000000005,0.5111999999999952
122.74999999999517,0.33021,-60.6312,1.4584000000000117
122.99999999999515,0.31198,-62.08960000000001,1.4775999999999883
123.24999999999514,0.29351000000000005,-63.5672,1.7623999999999995
123.49999999999513,0.27148,-65.3296,0.18560000000000798
123.74999999999511,0.26915999999999995,-65.51520000000001,3.23599999999999
123.9999999999951,0.22871000000000002,-68.7512,1.8168000000000006
124.24999999999508,0.20600000000000002,-70.568,2.3352000000000004
124.49999999999507,0.23519,-68.2328,0.8847999999999985
124.74999999999505,0.22413000000000002,-69.1176,1.4992000000000019
124.99999999999504,0.20539000000000002,-70.6168,1.058400000000006
125.24999999999503,0.21861999999999998,-69.55839999999999,2.063200000000009
125.49999999999501,0.19283,-71.6216,2.8704000000000036
125.749999999995,0.22870999999999997,-68.7512,2.88239999999999
125.99999999999498,0.26474,-65.86880000000001,0.9687999999999874
126.24999999999497,0.25263,-66.8376,4.425600000000003
126.49999999999496,0.19731,-71.2632,4.593599999999995
126.74999999999494,0.25473,-66.6696,0.6328000000000031
126.99999999999493,0.26264000000000004,-66.0368,1.7520000000000095
127.24999999999491,0.24074,-67.78880000000001,2.456000000000003
127.4999999999949,0.27144,-65.3328,0.9535999999999945
127.74999999999488,0.25952,-66.2864,2.744799999999998
127.99999999999487,0.22521,-69.0312,2.862400000000008
128.2499999999949,0.18943000000000002,-71.8936,0.057599999999993656
128.49999999999497,0.18871,-71.9512,3.8991999999999933
128.74999999999503,0.23745,-68.052,0.17680000000000007
128.99999999999508,0.23966000000000004,-67.8752,1.2623999999999995
129.24999999999514,0.25544,-66.61280000000001,5.773599999999988
129.4999999999952,0.18327,-72.3864,3.9255999999999887
129.74999999999525,0.23234,-68.4608,0.3199999999999932
129.9999999999953,0.22834000000000004,-68.7808,4.006399999999999
130.24999999999537,0.27842,-64.7744,6.313599999999994
130.49999999999542,0.19949999999999998,-71.088,5.452799999999996
130.74999999999548,0.26766,-65.6352,0.9375999999999891
130.99999999999554,0.27938,-64.69760000000001,1.347200000000008
131.2499999999956,0.29622000000000004,-63.3504,0.7896000000000001
131.49999999999565,0.28635,-64.14,0.6616
131.7499999999957,0.29462,-63.4784,0.8320000000000007
131.99999999999577,0.28422000000000003,-64.3104,0.6159999999999926
132.24999999999582,0.29192,-63.69440000000001,1.2055999999999827
132.49999999999588,0.27685000000000004,-64.89999999999999,0.40560000000000684
132.74999999999594,0.27178,-65.3056,0.4759999999999991
132.999999999996,0.26583,-65.7816,2.9935999999999936
133.24999999999605,0.30324999999999996,-62.788000000000004,2.1824000000000012
133.4999999999961,0.33053,-60.6056,0.8224000000000018
133.74999999999616,0.34081,-59.7832,1.6784000000000034
133.99999999999622,0.36179,-58.1048,1.4512000000000072
134.24999999999628,0.34365,-59.556000000000004,1.1120000000000019
134.49999999999633,0.35755000000000003,-58.444,1.3744000000000014
134.7499999999964,0.37473,-57.0696,0.7336000000000027
134.99999999999645,0.3839,-56.336,0.47279999999999234
135.2499999999965,0.38981000000000005,-55.863200000000006,0.30400000000000205
135.49999999999656,0.39361,-55.559200000000004,1.1983999999999995
135.74999999999662,0.37862999999999997,-56.757600000000004,2.0023999999999944
135.99999999999667,0.3536,-58.76,1.4432000000000045
136.24999999999673,0.33555999999999997,-60.2032,0.4632000000000005
136.4999999999968,0.32977,-60.6664,0.02960000000000207
136.74999999999685,0.33014,-60.6368,1.7192000000000007
136.9999999999969,0.30865,-62.356,0.44079999999999586
137.24999999999696,0.3031400000000001,-62.7968,3.465600000000002
137.49999999999702,0.25982,-66.2624,0.4031999999999982
137.74999999999707,0.25478,-66.6656,6.594400000000007
137.99999999999713,0.17235,-73.26,2.5423999999999864
138.2499999999972,0.14057000000000003,-75.80239999999999,7.025599999999983
138.49999999999724,0.22839,-68.77680000000001,5.42880000000001
138.7499999999973,0.29625,-63.348,0.42719999999999914
138.99999999999736,0.30159,-62.9208,1.328800000000001
139.2499999999974,0.3182,-61.592,0.3295999999999992
139.49999999999747,0.32232000000000005,-61.2624,2.631999999999998
139.74999999999753,0.35522,-58.6304,0.07280000000000086
139.99999999999758,0.35613,-58.5576,0.3096000000000032
140.24999999999764,0.36000000000000004,-58.248,0.30160000000000053
140.4999999999977,0.36377000000000004,-57.9464,0.34480000000000643
140.74999999999775,0.35946,-58.2912,0.7079999999999984
140.9999999999978,0.35061,-58.9992,0.9472000000000023
141.24999999999787,0.33876999999999996,-59.946400000000004,0.7336000000000027
141.49999999999793,0.34794,-59.2128,0.5103999999999971
141.74999999999798,0.35432,-58.702400000000004,0.16799999999999926
141.99999999999804,0.35641999999999996,-58.534400000000005,0.25680000000000547
142.2499999999981,0.35963,-58.2776,2.275200000000005
142.49999999999815,0.33119,-60.552800000000005,0.18959999999999866
142.7499999999982,0.33355999999999997,-60.363200000000006,0.784799999999997
142.99999999999827,0.34337,-59.57840000000001,1.6200000000000045
143.24999999999832,0.36361999999999994,-57.958400000000005,0.6424000000000021
143.49999999999838,0.35558999999999996,-58.60080000000001,2.186399999999999
143.74999999999844,0.32826,-60.787200000000006,0.25840000000000884
143.9999999999985,0.33149,-60.5288,1.1247999999999934
144.24999999999855,0.34554999999999997,-59.404,0.9183999999999983
144.4999999999986,0.33407,-60.3224,0.04080000000000439
144.74999999999866,0.33355999999999997,-60.363200000000006,0.04159999999999542
144.99999999999872,0.33408,-60.32160000000001,2.8352000000000146
145.24999999999878,0.36952,-57.486399999999996,0.062400000000003786
145.49999999999883,0.36874,-57.5488,0.24560000000001025
145.7499999999989,0.36567,-57.79440000000001,0.06720000000000681
145.99999999999895,0.36651,-57.7272,2.5967999999999947
146.249999999999,0.33405000000000007,-60.324,1.7312000000000012
146.49999999999906,0.35569,-58.5928,0.8736000000000033
146.74999999999912,0.34477,-59.4664,0.45519999999999783
146.99999999999918,0.35046,-59.0112,1.0943999999999932
147.24999999999923,0.33678,-60.105599999999995,1.8663999999999987
147.4999999999993,0.36011000000000004,-58.2392,0.05200000000000671
147.74999999999935,0.35946,-58.2912,0.5088000000000008
147.9999999999994,0.35309999999999997,-58.800000000000004,3.2175999999999974
148.24999999999946,0.31288,-62.0176,0.30879999999999797
148.49999999999952,0.31673999999999997,-61.708800000000004,0.23760000000000048
148.74999999999957,0.31377,-61.946400000000004,0.4440000000000026
148.99999999999963,0.31932,-61.5024,1.6559999999999988
149.2499999999997,0.29862,-63.1584,3.966399999999993
149.49999999999974,0.24904,-67.1248,3.4735999999999834
149.7499999999998,0.29246,-63.65120000000001,0.6512000000000029
149.99999999999986,0.3006,-63.00000000000001,3.128799999999991
150.24999999999991,0.26149,-66.1288,0.5112000000000023
150.49999999999997,0.26788,-65.6176,8.915199999999999
150.75000000000003,0.15644,-74.5328,9.167999999999992
151.00000000000009,0.27104,-65.3648,10.953599999999994
151.25000000000014,0.13412000000000002,-76.3184,1.3743999999999943
151.5000000000002,0.15130000000000002,-74.944,1.6448000000000036
151.75000000000026,0.13074,-76.5888,9.397600000000011
152.0000000000003,0.24821,-67.1912,2.5936000000000092
152.25000000000037,0.21579,-69.7848,0.05680000000000973
152.50000000000043,0.2165,-69.728,2.925600000000003
152.75000000000048,0.17993,-72.6536,0.9504000000000019
153.00000000000054,0.16804999999999998,-73.604,1.1200000000000045
153.2500000000006,0.15405,-74.724,0.036000000000001364
153.50000000000065,0.15360000000000001,-74.76,0.7879999999999967
153.7500000000007,0.16345,-73.97200000000001,0.38879999999998915
154.00000000000077,0.15858999999999998,-74.3608,5.852000000000004
154.25000000000082,0.23174,-68.5088,1.808800000000005
154.50000000000088,0.20913000000000004,-70.3176,6.864799999999995
154.75000000000094,0.29494,-63.4528,2.4895999999999887
155.000000000001,0.26382000000000005,-65.94239999999999,2.465599999999988
155.25000000000105,0.29463999999999996,-63.476800000000004,2.0719999999999956
155.5000000000011,0.26874,-65.5488,2.2439999999999998
155.75000000000117,0.24069000000000002,-67.7928,4.570399999999992
156.00000000000122,0.29782,-63.22240000000001,1.062400000000011
156.25000000000128,0.31110000000000004,-62.16,0.7232000000000056
156.50000000000134,0.30206,-62.8832,0.8072000000000017
156.7500000000014,0.31215000000000004,-62.076,6.637599999999999
157.00000000000145,0.22918000000000002,-68.7136,2.9343999999999966
157.2500000000015,0.26586,-65.7792,3.0319999999999965
157.50000000000156,0.22796000000000002,-68.8112,2.128
157.75000000000162,0.25456,-66.6832,3.917599999999993
158.00000000000168,0.20559000000000002,-70.60079999999999,0.3415999999999997
158.25000000000173,0.20986000000000002,-70.25919999999999,0.24720000000000653
158.5000000000018,0.20677000000000004,-70.5064,1.1415999999999968
158.75000000000185,0.22104,-69.3648,0.16960000000000264
159.0000000000019,0.21892,-69.5344,3.401600000000002
159.25000000000196,0.26144,-66.1328,1.7231999999999914
159.50000000000202,0.2399,-67.856,2.0575999999999937
159.75000000000207,0.26561999999999997,-65.7984,2.2383999999999986
160.00000000000213,0.29359999999999997,-63.56,2.294399999999996
160.2500000000022,0.26492,-65.8544,3.3455999999999975
160.50000000000225,0.30674,-62.5088,1.7431999999999945
160.7500000000023,0.28495,-64.252,1.9951999999999899
161.00000000000236,0.30988999999999994,-62.256800000000005,0.3960000000000008
161.25000000000242,0.30494,-62.652800000000006,0.5879999999999939
161.50000000000247,0.29759,-63.2408,6.9968
161.75000000000253,0.21013,-70.2376,3.4536000000000087
162.0000000000026,0.2533,-66.78399999999999,2.9183999999999912
162.25000000000264,0.28978000000000004,-63.8656,0.5479999999999947
162.5000000000027,0.29663,-63.317600000000006,1.7664000000000044
162.75000000000276,0.31871,-61.5512,1.7848000000000042
163.0000000000028,0.2964,-63.336000000000006,1.0671999999999926
163.25000000000287,0.28306,-64.4032,0.26080000000000325
163.50000000000293,0.2798,-64.664,0.15440000000000964
163.75000000000298,0.28173,-64.50959999999999,2.911200000000008
164.00000000000304,0.24533999999999997,-67.4208,2.034399999999991
164.2500000000031,0.27077,-65.38640000000001,6.6648
164.50000000000315,0.18746000000000002,-72.05120000000001,3.3215999999999894
164.7500000000032,0.14594000000000001,-75.3728,3.1311999999999927
165.00000000000327,0.18507999999999997,-72.2416,2.6288000000000125
165.25000000000333,0.21794000000000002,-69.6128,5.505599999999987
165.50000000000338,0.28676,-64.1072,10.945599999999999
165.75000000000344,0.14994000000000002,-75.0528,5.328800000000001
166.0000000000035,0.21655000000000002,-69.724,6.121600000000008
166.25000000000355,0.29307000000000005,-63.602399999999996,0.6695999999999955
166.5000000000036,0.30144000000000004,-62.9328,2.5871999999999957
166.75000000000367,0.33378,-60.345600000000005,0.8607999999999976
167.00000000000372,0.32302,-61.2064,0.44480000000000075
167.25000000000378,0.31745999999999996,-61.6512,1.73599999999999
167.50000000000384,0.33915999999999996,-59.91520000000001,2.8895999999999944
167.7500000000039,0.30304000000000003,-62.80480000000001,0.9359999999999928
168.00000000000395,0.29134000000000004,-63.7408,0.8160000000000096
168.250000000004,0.28114,-64.55680000000001,0.3240000000000123
168.50000000000406,0.28519,-64.2328,0.5095999999999989
168.75000000000412,0.29156,-63.7232,1.2087999999999965
169.00000000000418,0.30667,-62.5144,1.1055999999999955
169.25000000000423,0.29285,-63.62,1.6608000000000018
169.5000000000043,0.27209,-65.2808,3.088000000000001
169.75000000000435,0.31069,-62.1928,1.509599999999999
170.0000000000044,0.32956,-60.6832,1.559199999999997
170.25000000000446,0.34904999999999997,-59.124,0.17919999999999447
170.50000000000452,0.34681,-59.3032,0.05359999999999587
170.75000000000458,0.34747999999999996,-59.2496,0.5120000000000005
171.00000000000463,0.34108,-59.7616,1.3976000000000042
171.2500000000047,0.35855000000000004,-58.364,1.166400000000003
171.50000000000475,0.3731300000000001,-57.197599999999994,0.5488000000000071
171.7500000000048,0.36627,-57.7464,0.3575999999999979
172.00000000000486,0.37073999999999996,-57.3888,0.9048000000000087
172.25000000000492,0.35942999999999997,-58.29360000000001,1.186399999999992
172.50000000000497,0.3446,-59.480000000000004,1.8840000000000003
172.75000000000503,0.32104999999999995,-61.364000000000004,2.470400000000005
173.0000000000051,0.35193,-58.8936,0.9328000000000074
173.25000000000514,0.34026999999999996,-59.82640000000001,0.28880000000000194
173.5000000000052,0.33666,-60.11520000000001,0.19199999999999307
173.75000000000526,0.33426,-60.3072,2.6696000000000026
174.00000000000531,0.36763,-57.6376,0.036000000000001364
174.25000000000537,0.36718,-57.6736,0.32399999999999096
174.50000000000543,0.37123,-57.34960000000001,1.1535999999999973
174.75000000000549,0.35680999999999996,-58.50320000000001,3.123199999999997
175.00000000000554,0.31777,-61.626400000000004,1.4343999999999966
175.2500000000056,0.29984,-63.0608,0.1039999999999992
175.50000000000566,0.29853999999999997,-63.1648,0.7327999999999975
175.7500000000057,0.3077,-62.432,4.779200000000003
176.00000000000577,0.24796,-67.2112,1.6407999999999987
176.25000000000583,0.22745,-68.852,3.08959999999999
176.50000000000588,0.18883,-71.9416,6.219999999999999
176.75000000000594,0.26658,-65.7216,4.751200000000011
177.000000000006,0.20718999999999999,-70.4728,3.7120000000000033
177.25000000000605,0.25359,-66.7608,5.108000000000004
177.5000000000061,0.31744000000000006,-61.6528,0.945600000000006
177.75000000000617,0.30562,-62.598400000000005,2.0223999999999975
178.00000000000622,0.28034,-64.6208,4.003200000000007
178.25000000000628,0.2303,-68.62400000000001,1.445600000000013
178.50000000000634,0.24837000000000004,-67.1784,3.739999999999995
178.7500000000064,0.29512,-63.4384,1.6792000000000016
179.00000000000645,0.31611,-61.7592,4.165600000000005
179.2500000000065,0.26403999999999994,-65.9248,2.8232
179.50000000000657,0.22875,-68.748,2.9288000000000096
179.75000000000662,0.26536,-65.8192,3.024799999999985
180.00000000000668,0.30317,-62.79440000000001,1.3992000000000004
180.25000000000674,0.32066,-61.39520000000001,1.4720000000000084
180.5000000000068,0.33906000000000003,-59.9232,0.012000000000000455
180.75000000000685,0.33921,-59.9112,0.19439999999999458
181.0000000000069,0.34163999999999994,-59.716800000000006,1.0672000000000068
181.25000000000696,0.35498,-58.6496,1.9047999999999945
181.50000000000702,0.37879,-56.744800000000005,0.49680000000000035
181.75000000000708,0.385,-56.248000000000005,3.6735999999999933
182.00000000000713,0.33908,-59.9216,1.470400000000005
182.2500000000072,0.32070000000000004,-61.392,3.6400000000000006
182.50000000000725,0.36619999999999997,-57.752,1.3200000000000003
182.7500000000073,0.3827,-56.432,3.2816000000000045
183.00000000000736,0.34168000000000004,-59.71360000000001,4.442399999999999
183.25000000000742,0.28615,-64.156,6.7072
183.50000000000747,0.20231000000000005,-70.8632,3.5175999999999874
183.75000000000753,0.15834,-74.3808,5.925599999999989
184.0000000000076,0.23241,-68.4552,5.0319999999999965
184.25000000000765,0.29531,-63.42320000000001,0.1944000000000088
184.5000000000077,0.29774,-63.2288,0.36000000000000654
184.75000000000776,0.29324,-63.588800000000006,4.956800000000008
185.00000000000782,0.35520000000000007,-58.632,1.7055999999999898
185.25000000000787,0.37652,-56.92640000000001,0.5951999999999984
185.50000000000793,0.36907999999999996,-57.52160000000001,1.5863999999999905
185.750000000008,0.34925,-59.108,0.22320000000000562
186.00000000000804,0.34646000000000005,-59.3312,1.5808000000000035
186.2500000000081,0.3267,-60.912000000000006,1.6768000000000072
186.50000000000816,0.30573999999999996,-62.58880000000001,0.4928000000000168
186.7500000000082,0.3119,-62.096,0.7928000000000068
187.00000000000827,0.30199000000000004,-62.8888,3.843200000000003
187.25000000000833,0.35003,-59.0456,3.4424000000000063
187.50000000000838,0.307,-62.48800000000001,3.6295999999999893
187.75000000000844,0.26163,-66.1176,3.7687999999999917
188.0000000000085,0.30874,-62.348800000000004,0.7751999999999981
188.25000000000855,0.29905,-63.124,0.6799999999999997
188.5000000000086,0.29055,-63.804,2.1695999999999884
188.75000000000867,0.26343,-65.97359999999999,4.251999999999988
189.00000000000873,0.31658,-61.7216,0.4695999999999998
189.25000000000878,0.31071,-62.1912,2.1999999999999957
189.50000000000884,0.28320999999999996,-64.3912,0.4159999999999968
189.7500000000089,0.28841,-63.9752,1.6263999999999967
190.00000000000895,0.30874,-62.348800000000004,3.6015999999999977
190.250000000009,0.26372,-65.9504,0.5671999999999997
190.50000000000907,0.27081,-65.3832,2.08959999999999
190.75000000000912,0.24469000000000002,-67.47279999999999,1.0856000000000137
191.00000000000918,0.23112,-68.5584,7.243200000000009
191.25000000000924,0.32166,-61.3152,0.3719999999999928
191.5000000000093,0.32631,-60.943200000000004,1.6776000000000053
191.75000000000935,0.30534,-62.62080000000001,1.891200000000012
192.0000000000094,0.32898000000000005,-60.7296,2.748800000000003
192.25000000000946,0.29462,-63.4784,9.461599999999997
192.50000000000952,0.17634999999999998,-72.94,6.2327999999999975
192.75000000000958,0.25426,-66.7072,3.2759999999999962
193.00000000000963,0.29521000000000003,-63.431200000000004,0.07760000000000389
193.2500000000097,0.29618,-63.3536,4.318399999999997
193.50000000000975,0.35015999999999997,-59.0352,1.1055999999999955
193.7500000000098,0.36398,-57.92960000000001,1.152000000000001
194.00000000000986,0.37838,-56.77760000000001,1.304799999999993
194.25000000000992,0.36207,-58.0824,2.656799999999997
194.50000000000998,0.39527999999999996,-55.4256,1.6783999999999963
194.75000000001003,0.3743,-57.104,1.0095999999999918
195.0000000000101,0.38692,-56.09440000000001,0.3183999999999969
195.25000000001015,0.38293999999999995,-56.412800000000004,0.9271999999999991
195.5000000000102,0.37134999999999996,-57.34,1.4743999999999957
195.75000000001026,0.35292,-58.8144,4.912800000000011
196.00000000001032,0.29151,-63.72720000000001,2.0167999999999893
196.25000000001037,0.26630000000000004,-65.744,4.224799999999995
196.50000000001043,0.31911,-61.519200000000005,1.8736000000000033
196.7500000000105,0.34253,-59.6456,2.471200000000003
197.00000000001054,0.37342000000000003,-57.1744,1.3784000000000063
197.2500000000106,0.35618999999999995,-58.552800000000005,0.13360000000000127
197.50000000001066,0.35451999999999995,-58.686400000000006,1.8607999999999905
197.75000000001071,0.33126000000000005,-60.5472,0.9632000000000076
198.00000000001077,0.31921999999999995,-61.510400000000004,8.155199999999994
198.25000000001083,0.21728,-69.6656,3.4240000000000066
198.50000000001089,0.17448000000000002,-73.0896,3.3648000000000025
198.75000000001094,0.13241999999999998,-76.4544,4.81280000000001
199.000000000011,0.19258000000000003,-71.6416,5.840000000000003
199.25000000001106,0.26558000000000004,-65.8016,6.408799999999985
199.5000000000111,0.34568999999999994,-59.39280000000001,1.190400000000011
199.75000000001117,0.36057,-58.2024,1.2368000000000023
200.00000000001123,0.34511,-59.4392,0.8127999999999957
200.25000000001128,0.35527000000000003,-58.626400000000004,0.352800000000002
200.50000000001134,0.35968,-58.2736,1.8224000000000018
200.7500000000114,0.38246,-56.4512,0.01680000000000348
201.00000000001145,0.38225,-56.468,0.8271999999999977
201.2500000000115,0.39259,-55.640800000000006,0.7119999999999962
201.50000000001157,0.38369,-56.3528,1.9280000000000044
201.75000000001162,0.35958999999999997,-58.280800000000006,1.3520000000000039
202.00000000001168,0.34269,-59.63280000000001,0.8335999999999899
202.25000000001174,0.33227,-60.4664,0.31759999999999877
202.5000000000118,0.33624,-60.1488,0.4087999999999994
202.75000000001185,0.33113000000000004,-60.5576,0.7463999999999942
203.0000000000119,0.34046000000000004,-59.81120000000001,1.1975999999999942
203.25000000001197,0.32549,-61.0088,2.558399999999992
203.50000000001202,0.35747,-58.45040000000001,0.19759999999999422
203.75000000001208,0.355,-58.648,1.1848000000000027
204.00000000001214,0.34019000000000005,-59.832800000000006,1.3504000000000005
204.2500000000122,0.35707,-58.482400000000005,3.015999999999991
204.50000000001225,0.31937000000000004,-61.4984,4.362400000000001
204.7500000000123,0.26484,-65.8608,0.44879999999999143
205.00000000001236,0.27044999999999997,-65.412,1.5975999999999928
205.25000000001242,0.29041999999999996,-63.81440000000001,0.38640000000000896
205.50000000001248,0.29524999999999996,-63.428000000000004,2.799199999999999
205.75000000001253,0.33024,-60.628800000000005,0.4391999999999996
206.0000000000126,0.32475,-61.068000000000005,1.2288000000000068
206.25000000001265,0.34011,-59.8392,0.8103999999999942
206.5000000000127,0.35024,-59.028800000000004,0.5792000000000002
206.75000000001276,0.34299999999999997,-59.608000000000004,4.507199999999997
207.00000000001282,0.28666,-64.1152,2.778400000000005
207.25000000001288,0.25193,-66.8936,5.959199999999996
207.50000000001293,0.17744,-72.8528,9.007199999999997
207.750000000013,0.29003,-63.845600000000005,3.1495999999999924
208.00000000001305,0.32939999999999997,-60.69600000000001,1.9856000000000193
208.2500000000131,0.3542200000000001,-58.71039999999999,2.1199999999999832
208.50000000001316,0.38072,-56.59040000000001,1.3584000000000032
208.75000000001322,0.3977,-55.232000000000006,1.9719999999999942
209.00000000001327,0.37305,-57.204,0.042400000000007765
209.25000000001333,0.37252,-57.24640000000001,2.152000000000008
209.5000000000134,0.39942,-55.0944,1.416800000000002
209.75000000001344,0.38171,-56.5112,0.3511999999999986
210.0000000000135,0.3861,-56.160000000000004,1.0752000000000024
210.25000000001356,0.39953999999999995,-55.0848,0.19119999999998782
210.5000000000136,0.40192999999999995,-54.89360000000001,0.42080000000001405
210.75000000001367,0.40719000000000005,-54.4728,1.048000000000009
211.00000000001373,0.39408999999999994,-55.52080000000001,0.31520000000000437
211.25000000001378,0.39803,-55.205600000000004,0.3119999999999976
211.50000000001384,0.39413,-55.5176,0.7623999999999995
211.7500000000139,0.40366,-54.7552,4.4176
212.00000000001396,0.34843999999999997,-59.1728,0.7271999999999963
212.250000000014,0.33935,-59.9,1.4200000000000017
212.50000000001407,0.3216,-61.32,9.883199999999995
212.75000000001413,0.19805999999999999,-71.2032,7.255199999999995
213.00000000001418,0.28875,-63.948,0.539200000000001
213.25000000001424,0.29549,-63.4088,2.3104000000000013
213.5000000000143,0.26661,-65.7192,4.876000000000005
213.75000000001435,0.20566,-70.5952,6.0120000000000005
214.0000000000144,0.28080999999999995,-64.5832,2.2567999999999984
214.25000000001447,0.2526,-66.84,3.0024000000000015
214.50000000001452,0.29013,-63.8376,3.862400000000001
214.75000000001458,0.33841,-59.9752,3.7231999999999985
215.00000000001464,0.29187,-63.6984,1.9928000000000097
215.2500000000147,0.26696,-65.69120000000001,5.288800000000002
215.50000000001475,0.33307000000000003,-60.40240000000001,2.6888000000000076
215.7500000000148,0.36668,-57.7136,0.6824000000000083
216.00000000001486,0.35814999999999997,-58.39600000000001,1.6336000000000013
216.25000000001492,0.37856999999999996,-56.76240000000001,1.3007999999999953
216.50000000001498,0.36231,-58.0632,1.750399999999999
216.75000000001504,0.34042999999999995,-59.8136,3.279999999999994
217.0000000000151,0.38143,-56.53360000000001,2.0864000000000047
217.25000000001515,0.40751,-54.4472,4.088799999999999
217.5000000000152,0.3564,-58.536,1.3111999999999924
217.75000000001526,0.37279,-57.22480000000001,0.22479999999999478
218.00000000001532,0.36998000000000003,-57.449600000000004,3.3200000000000003
218.25000000001538,0.32848,-60.769600000000004,2.6999999999999957
218.50000000001543,0.29473000000000005,-63.4696,3.2879999999999967
218.7500000000155,0.25362999999999997,-66.7576,1.3767999999999887
219.00000000001555,0.27084,-65.38080000000001,1.6607999999999947
219.2500000000156,0.25007999999999997,-67.0416,1.7575999999999965
219.50000000001566,0.27205,-65.284,1.764000000000003
219.75000000001572,0.2941,-63.52,4.083199999999998
220.00000000001577,0.24306,-67.6032,2.4632000000000005
220.25000000001583,0.21227000000000001,-70.0664,7.558399999999999
220.5000000000159,0.30674999999999997,-62.508,5.555199999999999
220.75000000001594,0.37618999999999997,-56.9528,0.47520000000000095
221.000000000016,0.37025,-57.428000000000004,4.9583999999999975
221.25000000001606,0.30827,-62.3864,0.5279999999999987
221.50000000001612,0.30167,-62.9144,0.2560000000000002
221.75000000001617,0.29847,-63.1704,3.004800000000003
222.00000000001623,0.26091,-66.1752,2.5176000000000016
222.25000000001629,0.29238,-63.6576,9.471999999999994
222.50000000001634,0.17398,-73.1296,7.415199999999999
222.7500000000164,0.26666999999999996,-65.7144,1.6447999999999894
223.00000000001646,0.28723,-64.06960000000001,7.686399999999992
223.2500000000165,0.19115,-71.756,9.179199999999994
223.50000000001657,0.30589000000000005,-62.576800000000006,9.551999999999992
223.75000000001663,0.18649,-72.1288,3.7904000000000053
224.00000000001668,0.23386999999999997,-68.3384,0.10239999999998872
224.25000000001674,0.23515000000000003,-68.236,2.0975999999999857
224.5000000000168,0.20893,-70.33359999999999,1.3063999999999965
224.75000000001685,0.22526000000000002,-69.0272,1.7328000000000117
225.0000000000169,0.2036,-70.76,7.297600000000003
225.25000000001697,0.29481999999999997,-63.4624,7.771200000000007
225.50000000001702,0.19768,-71.23360000000001,5.711200000000005
225.75000000001708,0.26907,-65.5224,2.2632000000000048
226.00000000001714,0.29736,-63.2592,1.0191999999999979
226.2500000000172,0.3101,-62.24,1.2591999999999999
226.50000000001725,0.32584,-60.9808,3.0919999999999987
226.7500000000173,0.36449,-57.8888,2.7824000000000026
227.00000000001737,0.39927,-55.1064,1.8151999999999973
227.25000000001742,0.42196,-53.2912,0.759999999999998
227.50000000001748,0.41246,-54.0512,0.25679999999999836
227.75000000001754,0.40925,-54.308,3.1696000000000026
228.0000000000176,0.36963,-57.4776,0.5367999999999995
228.25000000001765,0.36292,-58.0144,2.720799999999997
228.5000000000177,0.32891000000000004,-60.7352,0.5808000000000035
228.75000000001776,0.32165000000000005,-61.316,0.14879999999999427
229.00000000001782,0.32350999999999996,-61.16720000000001,0.9055999999999997
229.25000000001788,0.31218999999999997,-62.07280000000001,4.557600000000008
229.50000000001793,0.36916000000000004,-57.5152,1.0279999999999916
229.750000000018,0.38201,-56.48720000000001,0.09039999999999537
230.00000000001805,0.38088,-56.577600000000004,0.07760000000000389
230.2500000000181,0.37991,-56.65520000000001,1.6784000000000106
230.50000000001816,0.4008900000000001,-54.9768,0.9840000000000089
230.75000000001822,0.38859000000000005,-55.960800000000006,1.3272000000000048
231.00000000001828,0.40518,-54.6336,3.9423999999999992
231.25000000001833,0.3559,-58.576,0.4048000000000016
231.5000000000184,0.35084,-58.9808,1.1480000000000032
231.75000000001845,0.33649,-60.128800000000005,0.6551999999999936
232.0000000000185,0.3283,-60.784,0.25439999999999685
232.25000000001856,0.33147999999999994,-60.5296,0.1687999999999974
232.50000000001862,0.33358999999999994,-60.360800000000005,4.108800000000002
232.75000000001867,0.38495,-56.252,0.07760000000000389
233.00000000001873,0.38397999999999993,-56.329600000000006,2.9816000000000074
233.2500000000188,0.42125,-53.348,0.7767999999999944
233.50000000001884,0.43095999999999995,-52.571200000000005,1.7919999999999945
233.7500000000189,0.40856000000000003,-54.3632,0.2424000000000106
234.00000000001896,0.40553,-54.60560000000001,1.5711999999999904
234.250000000019,0.38589,-56.1768,0.6999999999999957
234.50000000001907,0.39464,-55.476800000000004,3.716000000000001
234.75000000001913,0.34819,-59.192800000000005,0.8031999999999968
235.00000000001918,0.35822999999999994,-58.38960000000001,1.5527999999999906
235.25000000001924,0.33882,-59.9424,2.0272000000000006
235.5000000000193,0.36416,-57.9152,0.8584000000000103
235.75000000001936,0.35342999999999997,-58.77360000000001,5.268799999999992
236.0000000000194,0.28757,-64.0424,11.2072
236.25000000001947,0.14748,-75.2496,5.201599999999999
236.50000000001953,0.2125,-70.048,4.559200000000004
236.75000000001958,0.26949,-65.4888,1.4791999999999916
237.00000000001964,0.28798,-64.0096,2.4679999999999964
237.2500000000197,0.31883,-61.54160000000001,2.61519999999998
237.50000000001975,0.28614000000000006,-64.15679999999999,2.513600000000011
237.7500000000198,0.25472,-66.6704,9.610399999999998
238.00000000001987,0.13459,-76.2808,4.504000000000005
238.25000000001992,0.19089,-71.7768,6.903999999999996
238.50000000001998,0.27719,-64.8728,3.328799999999994
238.75000000002004,0.31880000000000003,-61.544000000000004,3.3800000000000026
239.0000000000201,0.36105,-58.164,2.273600000000002
239.25000000002015,0.33263,-60.4376,4.181600000000003
239.5000000000202,0.28036,-64.6192,0.5824000000000069
239.75000000002026,0.28764,-64.0368,1.5087999999999937
240.00000000002032,0.3065,-62.528000000000006,1.0775999999999968
240.25000000002038,0.29303,-63.6056,1.2992000000000061
240.50000000002044,0.27679,-64.90480000000001,5.511200000000002
240.7500000000205,0.34568000000000004,-59.393600000000006,2.824799999999996
241.00000000002055,0.38099,-56.56880000000001,2.3216000000000037
241.2500000000206,0.41001000000000004,-54.24720000000001,0.8415999999999997
241.50000000002066,0.42052999999999996,-53.40560000000001,1.092800000000004
241.75000000002072,0.43418999999999996,-52.3128,0.5191999999999979
242.00000000002078,0.44067999999999996,-51.793600000000005,0.6608000000000018
242.25000000002083,0.4324199999999999,-52.45440000000001,1.2279999999999944
242.5000000000209,0.41707,-53.6824,0.6448000000000036
242.75000000002095,0.40901,-54.327200000000005,0.36640000000000583
243.000000000021,0.41359,-53.9608,4.611200000000004
243.25000000002106,0.35595000000000004,-58.572,0.06640000000000157
243.50000000002112,0.35678,-58.5056,4.958400000000005
243.75000000002117,0.2948,-63.464000000000006,2.5664000000000087
244.00000000002123,0.32688,-60.8976,3.2320000000000135
244.2500000000213,0.28647999999999996,-64.12960000000001,1.6367999999999938
244.50000000002134,0.26602000000000003,-65.7664,5.691200000000002
244.7500000000214,0.33716,-60.0752,6.434400000000004
245.00000000002146,0.25673,-66.5096,0.352800000000002
245.25000000002152,0.26114,-66.1568,1.2319999999999993
245.50000000002157,0.27654,-64.9248,0.11920000000000641
245.75000000002163,0.27803,-64.8056,6.006399999999999
246.00000000002169,0.35311,-58.7992,1.0952000000000055
246.25000000002174,0.33941999999999994,-59.894400000000005,2.8856000000000037
246.5000000000218,0.37549,-57.0088,2.4840000000000018
246.75000000002186,0.34443999999999997,-59.4928,0.9287999999999954
247.0000000000219,0.35605,-58.56400000000001,1.842400000000012
247.25000000002197,0.37908000000000003,-56.721599999999995,0.4304000000000059
247.50000000002203,0.37370000000000003,-57.152,1.7032000000000025
247.75000000002208,0.39499000000000006,-55.4488,3.1927999999999983
248.00000000002214,0.35508,-58.6416,0.284000000000006
248.2500000000222,0.35153,-58.9256,2.598399999999998
248.50000000002225,0.31905,-61.524,0.010400000000004184
248.7500000000223,0.31892,-61.534400000000005,1.152799999999992
249.00000000002237,0.30451,-62.6872,6.499999999999993
249.25000000002242,0.38576,-56.187200000000004,0.8079999999999998
249.50000000002248,0.37566,-56.995200000000004,1.2079999999999984
249.75000000002254,0.39076000000000005,-55.787200000000006,1.8111999999999995
250.0000000000226,0.36812,-57.598400000000005,1.0183999999999997
250.25000000002265,0.35539,-58.616800000000005,1.3440000000000012
250.5000000000227,0.33859,-59.960800000000006,2.342400000000005
250.75000000002277,0.36787000000000003,-57.6184,1.2231999999999914
251.00000000002282,0.38316,-56.39520000000001,0.132000000000005
251.25000000002288,0.38481,-56.263200000000005,1.6440000000000055
251.50000000002294,0.40536000000000005,-54.6192,3.4624000000000095
251.750000000023,0.36208,-58.08160000000001,0.4072000000000031
252.00000000002305,0.36717,-57.674400000000006,0.613599999999991
252.2500000000231,0.35950000000000004,-58.288,1.9872000000000014
252.50000000002316,0.33466000000000007,-60.2752,0.671999999999997
252.75000000002322,0.34306000000000003,-59.6032,0.14399999999999125
253.00000000002328,0.34486,-59.45920000000001,1.2839999999999918
253.25000000002333,0.32881,-60.7432,2.8536
253.5000000000234,0.36448,-57.8896,2.1248000000000005
253.75000000002345,0.39104,-55.7648,0.2528000000000006
254.0000000000235,0.38788000000000006,-56.0176,3.828800000000001
254.25000000002356,0.34002,-59.8464,0.35199999999999676
254.50000000002362,0.34442,-59.494400000000006,1.9568000000000012
254.75000000002368,0.36888,-57.537600000000005,1.598399999999998
255.00000000002373,0.38886,-55.93920000000001,0.8816000000000059
255.2500000000238,0.39988,-55.0576,0.5080000000000098
255.50000000002385,0.39353,-55.56560000000001,0.8384000000000142
255.7500000000239,0.4040100000000001,-54.727199999999996,0.061599999999998545
256.00000000002393,0.40478000000000003,-54.6656,0.7279999999999944
256.250000000024,0.41387999999999997,-53.9376,1.5912000000000006
256.50000000002404,0.39398999999999995,-55.528800000000004,1.0304000000000002
256.7500000000241,0.38110999999999995,-56.559200000000004,0.5127999999999986
257.00000000002416,0.38752,-56.046400000000006,0.9808000000000021
257.2500000000242,0.39978,-55.0656,0.8520000000000039
257.5000000000243,0.38913,-55.91760000000001,1.8680000000000092
257.75000000002433,0.41248000000000007,-54.0496,0.08160000000000167
258.0000000000244,0.41146000000000005,-54.1312,0.15919999999999845
258.25000000002444,0.41345,-53.972,1.039200000000001
258.5000000000245,0.42644000000000004,-52.9328,1.9791999999999987
258.75000000002456,0.40170000000000006,-54.912,0.804000000000002
259.0000000000246,0.39165,-55.716,1.4000000000000057
259.25000000002467,0.37415,-57.11600000000001,0.16319999999998913
259.5000000000247,0.37211000000000005,-57.279199999999996,4.132800000000003
259.7500000000248,0.32045,-61.412,1.2567999999999984
260.00000000002484,0.33616,-60.1552,1.9183999999999983
260.2500000000249,0.31218,-62.0736,1.2863999999999933
260.50000000002495,0.32826,-60.787200000000006,2.6504000000000048
260.750000000025,0.36139,-58.1368,3.1207999999999956
261.00000000002507,0.4004,-55.016000000000005,0.45520000000000493
261.2500000000251,0.40609,-54.5608,0.4327999999999932
261.5000000000252,0.41150000000000003,-54.12800000000001,0.42320000000000135
261.75000000002524,0.41679000000000005,-53.704800000000006,0.42799999999999727
262.0000000000253,0.41144,-54.1328,0.5424000000000007
262.25000000002535,0.40465999999999996,-54.675200000000004,0.3872000000000071
262.5000000000254,0.4095000000000001,-54.288,1.1112000000000037
262.75000000002547,0.39561,-55.3992,0.519999999999996
263.0000000000255,0.38911,-55.9192,2.3688000000000002
263.2500000000256,0.35950000000000004,-58.288,0.5911999999999864
263.50000000002564,0.36689,-57.69680000000001,2.412799999999997
263.7500000000257,0.33673,-60.10960000000001,5.275199999999991
264.00000000002575,0.27079,-65.3848,0.892799999999994
264.2500000000258,0.28195000000000003,-64.492,1.4136000000000024
264.50000000002586,0.29962,-63.0784,2.455999999999996
264.7500000000259,0.33032,-60.622400000000006,3.1591999999999985
265.000000000026,0.36980999999999997,-57.46320000000001,0.00560000000000116
265.25000000002603,0.36988000000000004,-57.457600000000006,1.465599999999995
265.5000000000261,0.35156,-58.9232,4.662400000000005
265.75000000002615,0.29328,-63.58560000000001,1.3656000000000077
266.0000000000262,0.31035,-62.22,1.960800000000006
266.25000000002626,0.28584,-64.1808,1.5143999999999949
266.5000000000263,0.26691000000000004,-65.6952,3.539199999999994
266.7500000000264,0.22267,-69.2344,7.631999999999991
267.00000000002643,0.31806999999999996,-61.6024,1.137599999999999
267.2500000000265,0.33229000000000003,-60.464800000000004,0.568000000000005
267.50000000002655,0.33939,-59.8968,2.9208
267.7500000000266,0.30288,-62.8176,0.00560000000000116
268.00000000002666,0.30281,-62.8232,0.37760000000000815
268.2500000000267,0.29809,-63.20080000000001,3.6440000000000126
268.5000000000268,0.34364000000000006,-59.556799999999996,4.633599999999994
268.75000000002683,0.40156000000000003,-54.9232,0.05120000000000857
269.0000000000269,0.40092,-54.97440000000001,0.28879999999999484
269.25000000002694,0.39730999999999994,-55.263200000000005,1.1792000000000016
269.500000000027,0.38256999999999997,-56.442400000000006,2.798400000000001
269.75000000002706,0.41755,-53.644000000000005,0.35360000000000014
270.0000000000271,0.41313000000000005,-53.997600000000006,0.41679999999999495
270.25000000002717,0.41834,-53.58080000000001,0.0455999999999932
270.5000000000272,0.41777,-53.626400000000004,2.2952000000000012
270.7500000000273,0.38908,-55.921600000000005,0.17600000000000193
271.00000000002734,0.39127999999999996,-55.7456,4.891999999999996
271.2500000000274,0.33013000000000003,-60.6376,2.9720000000000013
271.50000000002746,0.29297999999999996,-63.6096,3.3200000000000003
271.7500000000275,0.33448,-60.2896,1.588000000000008
272.00000000002757,0.31463,-61.87760000000001,1.0175999999999945
272.2500000000276,0.30191,-62.8952,4.936
272.5000000000277,0.36361,-57.9592,3.552800000000005
272.75000000002774,0.40802000000000005,-54.4064,0.5592000000000041
273.0000000000278,0.40103,-54.9656,0.9568000000000012
273.25000000002785,0.38906999999999997,-55.9224,2.3615999999999957
273.5000000000279,0.35955000000000004,-58.284,5.2592
273.75000000002797,0.29381,-63.5432,7.547200000000004
274.000000000028,0.19946999999999998,-71.0904,1.8392000000000053
274.2500000000281,0.17648,-72.92960000000001,6.964800000000011
274.50000000002814,0.26354,-65.9648,6.615199999999994
274.7500000000282,0.34623,-59.3496,3.294400000000003
275.00000000002825,0.38741,-56.0552,2.6295999999999964
275.2500000000283,0.42028,-53.4256,0.24080000000000723
275.50000000002836,0.42329000000000006,-53.184799999999996,0.020799999999994156
275.7500000000284,0.42355,-53.164,1.4088000000000065
276.0000000000285,0.40594,-54.57280000000001,0.8023999999999987
276.25000000002854,0.41597,-53.77040000000001,0.8063999999999893
276.5000000000286,0.40589000000000003,-54.5768,3.5423999999999936
276.75000000002865,0.45016999999999996,-51.034400000000005,1.2623999999999924
277.0000000000287,0.43439000000000005,-52.2968,1.220800000000004
277.25000000002876,0.41913,-53.5176,0.7480000000000047
277.5000000000288,0.4284800000000001,-52.7696,0.05919999999998993
277.7500000000289,0.42921999999999993,-52.71040000000001,0.8351999999999933
278.00000000002893,0.41878000000000004,-53.5456,1.078400000000002
278.250000000029,0.43226000000000003,-52.4672,0.44879999999999143
278.50000000002905,0.43787000000000004,-52.01840000000001,1.588000000000008
278.7500000000291,0.45772,-50.4304,0.08080000000001064
279.00000000002916,0.45671,-50.51120000000001,0.5383999999999887
279.2500000000292,0.44998000000000005,-51.0496,0.05119999999999436
279.5000000000293,0.45061999999999997,-50.998400000000004,1.8327999999999989
279.75000000002933,0.47353000000000006,-49.165600000000005,0.13680000000000092
280.0000000000294,0.47524,-49.028800000000004,4.667200000000001
280.25000000002944,0.41689999999999994,-53.696000000000005,2.6599999999999966
280.5000000000295,0.38365,-56.356,1.8664000000000058
280.75000000002956,0.36032,-58.22240000000001,3.5864000000000047
281.0000000000296,0.40515,-54.636,0.8952000000000027
281.2500000000297,0.41634000000000004,-53.7408,1.7871999999999986
281.50000000002973,0.394,-55.528,2.44639999999999
281.7500000000298,0.42458,-53.08160000000001,0.9880000000000067
282.00000000002984,0.4369300000000001,-52.0936,7.8408000000000015
282.2500000000299,0.33892,-59.934400000000004,6.359200000000008
282.50000000002996,0.25942999999999994,-66.29360000000001,0.8600000000000136
282.75000000003,0.27018,-65.4336,0.5007999999999981
283.00000000003007,0.27644,-64.9328,0.22320000000000562
283.2500000000301,0.27365,-65.156,1.8832000000000022
283.5000000000302,0.29718999999999995,-63.272800000000004,7.5519999999999925
283.75000000003024,0.20279000000000003,-70.8248,9.359199999999987
284.0000000000303,0.31978,-61.46560000000001,0.8936000000000135
284.25000000003035,0.33095,-60.571999999999996,2.332799999999999
284.5000000000304,0.36011000000000004,-58.2392,2.8736000000000104
284.75000000003047,0.32419,-61.11280000000001,0.2319999999999922
285.0000000000305,0.32129,-61.3448,0.313600000000001
285.2500000000306,0.31737000000000004,-61.6584,0.3640000000000043
285.50000000003064,0.31282,-62.022400000000005,4.5824
285.7500000000307,0.3701,-57.440000000000005,2.160800000000009
286.00000000003075,0.39711,-55.279199999999996,2.863199999999992
286.2500000000308,0.43289999999999995,-52.416000000000004,4.3352
286.50000000003087,0.37871,-56.751200000000004,6.536799999999992
286.7500000000309,0.29700000000000004,-63.288,0.9039999999999964
287.000000000031,0.2857,-64.192,1.4527999999999892
287.25000000003104,0.30385999999999996,-62.739200000000004,5.591200000000001
287.5000000000311,0.37375,-57.148,1.5032000000000068
287.75000000003115,0.35496,-58.65120000000001,2.3207999999999984
288.0000000000312,0.38397,-56.33040000000001,0.07680000000000575
288.25000000003126,0.38492999999999994,-56.253600000000006,1.6991999999999976
288.5000000000313,0.36368999999999996,-57.9528,2.064
288.7500000000314,0.38949,-55.8888,5.897599999999997
289.00000000003143,0.31577,-61.7864,2.603999999999992
289.2500000000315,0.34832,-59.18240000000001,2.9839999999999876
289.50000000003155,0.31102,-62.166399999999996,0.950400000000009
289.7500000000316,0.29913999999999996,-63.116800000000005,7.255999999999993
290.00000000003166,0.20844000000000001,-70.3728,8.823199999999993
290.2500000000317,0.31873,-61.549600000000005,1.8008000000000024
290.5000000000318,0.34124000000000004,-59.7488,0.002400000000001512
290.75000000003183,0.34120999999999996,-59.751200000000004,5.899999999999999
291.0000000000319,0.26746,-65.6512,0.2120000000000033
291.25000000003195,0.27010999999999996,-65.4392,1.956799999999994
291.500000000032,0.29457,-63.482400000000005,2.808799999999998
291.75000000003206,0.25945999999999997,-66.2912,4.358400000000003
292.0000000000321,0.31394,-61.9328,0.2528000000000006
292.2500000000322,0.31710000000000005,-61.68,0.6784000000000034
292.50000000003223,0.30862,-62.3584,2.754399999999997
292.7500000000323,0.34304999999999997,-59.604000000000006,5.149599999999992
293.00000000003234,0.40741999999999995,-54.454400000000014,2.0992000000000033
293.2500000000324,0.43366,-52.35520000000001,2.7927999999999855
293.50000000003246,0.39875000000000005,-55.147999999999996,2.421600000000005
293.7500000000325,0.36848000000000003,-57.5696,6.358399999999996
294.00000000003257,0.28900000000000003,-63.928,5.064000000000007
294.2500000000326,0.2257,-68.992,7.787199999999999
294.5000000000327,0.32304000000000005,-61.204800000000006,2.9080000000000013
294.75000000003274,0.35939,-58.296800000000005,0.833599999999997
295.0000000000328,0.34897,-59.1304,3.231199999999994
295.25000000003286,0.30858,-62.361599999999996,5.489599999999989
295.5000000000329,0.3772,-56.87200000000001,0.7295999999999978
295.75000000003297,0.36808,-57.601600000000005,0.9543999999999997
296.000000000033,0.35614999999999997,-58.556000000000004,0.7752000000000052
296.2500000000331,0.36584000000000005,-57.7808,3.6311999999999927
296.50000000003314,0.41123000000000004,-54.14960000000001,0.5
296.7500000000332,0.41747999999999996,-53.64960000000001,0.0303999999999931
297.00000000003325,0.41785999999999995,-53.61920000000001,3.126400000000011
297.2500000000333,0.45694,-50.4928,0.8048000000000073
297.50000000003337,0.44688,-51.29760000000001,3.08959999999999
297.7500000000334,0.40826,-54.3872,6.3552000000000035
298.0000000000335,0.32882,-60.7424,2.564799999999998
298.25000000003354,0.36088,-58.177600000000005,1.6344000000000065
298.5000000000336,0.38131,-56.5432,3.2976000000000028
298.75000000003365,0.34009,-59.8408,2.299199999999999
299.0000000000337,0.36883,-57.5416,4.850399999999993
299.25000000003376,0.42946,-52.69120000000001,0.6840000000000046
299.5000000000338,0.42090999999999995,-53.375200000000014,1.6384000000000043
299.7500000000339,0.44139,-51.73680000000001,4.335199999999993
300.00000000003394,0.38720000000000004,-56.072,4.704000000000001
300.250000000034,0.32839999999999997,-60.776,7.853599999999993
300.50000000003405,0.23023000000000002,-68.6296,3.180000000000007
300.7500000000341,0.19048,-71.8096,4.749600000000001
301.00000000003416,0.24985,-67.06,6.426400000000001
301.2500000000342,0.33018000000000003,-60.6336,1.3896000000000015
301.5000000000343,0.34755,-59.244,2.446400000000004
301.75000000003433,0.31697000000000003,-61.690400000000004,10.498399999999997
302.0000000000344,0.18574000000000002,-72.1888,12.189599999999992
302.25000000003445,0.33810999999999997,-59.99920000000001,2.420000000000009
302.5000000000345,0.36835999999999997,-57.5792,2.784000000000006
302.75000000003456,0.33355999999999997,-60.363200000000006,0.5848000000000013
303.0000000000346,0.34086999999999995,-59.778400000000005,5.447200000000002
303.2500000000347,0.40896,-54.3312,3.114399999999989
303.50000000003473,0.44788999999999995,-51.21680000000001,3.2391999999999896
303.7500000000348,0.4074,-54.456,2.3071999999999946
304.00000000003485,0.43624,-52.14880000000001,1.8096000000000103
304.2500000000349,0.45886000000000005,-50.3392,0.27200000000000557
304.50000000003496,0.45546,-50.611200000000004,5.2032000000000025
304.750000000035,0.39042000000000004,-55.814400000000006,5.472000000000001
305.0000000000351,0.45882000000000006,-50.342400000000005,2.2408000000000072
305.25000000003513,0.43080999999999997,-52.58320000000001,2.3911999999999978
305.5000000000352,0.40092,-54.97440000000001,5.612800000000014
305.75000000003524,0.47108000000000005,-49.361599999999996,1.867200000000004
306.0000000000353,0.44774,-51.2288,0.9824000000000055
306.25000000003536,0.43545999999999996,-52.211200000000005,4.651199999999996
306.5000000000354,0.37732,-56.8624,0.8656000000000006
306.75000000003547,0.38814000000000004,-55.9968,9.540799999999997
307.0000000000355,0.26888,-65.5376,3.986399999999996
307.2500000000356,0.31871000000000005,-61.5512,6.036799999999992
307.50000000003564,0.39416999999999996,-55.51440000000001,2.9623999999999953
307.7500000000357,0.35714000000000007,-58.476800000000004,3.334399999999995
308.00000000003575,0.31546,-61.8112,5.8951999999999956
308.2500000000358,0.38915,-55.916000000000004,3.6215999999999937
308.50000000003587,0.3438800000000001,-59.5376,8.933599999999998
308.7500000000359,0.23220999999999997,-68.4712,7.34879999999999
309.000000000036,0.32406999999999997,-61.122400000000006,4.627200000000002
309.25000000003604,0.38191,-56.495200000000004,2.852800000000002
309.5000000000361,0.34625,-59.348000000000006,8.56799999999999
309.75000000003615,0.23915000000000003,-67.916,10.126399999999997
310.0000000000362,0.36573,-57.7896,2.3064000000000036
310.25000000003627,0.3369,-60.096000000000004,2.067999999999998
310.5000000000363,0.31105000000000005,-62.164,7.366399999999999
310.7500000000364,0.40313,-54.7976,2.9343999999999966
311.00000000003644,0.36645000000000005,-57.732,1.470399999999998
311.2500000000365,0.38483,-56.2616,0.6544000000000096
311.50000000003655,0.37665,-56.91600000000001,2.8360000000000127
311.7500000000366,0.4121,-54.08,4.025599999999997
312.00000000003666,0.46242,-50.0544,3.436000000000007
312.2500000000367,0.4194699999999999,-53.49040000000001,1.3912000000000049
312.5000000000368,0.43685999999999997,-52.0992,3.9343999999999966
312.75000000003683,0.38767999999999997,-56.0336,10.0088
313.0000000000369,0.26257,-66.0424,12.822399999999995
313.25000000003695,0.42284999999999995,-53.220000000000006,5.1351999999999975
313.500000000037,0.35866,-58.3552,5.819199999999995
313.75000000003706,0.4313999999999999,-52.53600000000001,1.436000000000007
314.0000000000371,0.44935,-51.1,0.5399999999999991
314.2500000000372,0.4426,-51.64,2.2967999999999975
314.50000000003723,0.47131,-49.3432,5.5760000000000005
314.7500000000373,0.40160999999999997,-54.919200000000004,6.692800000000005
315.00000000003735,0.31795,-61.61200000000001,3.9295999999999935
315.2500000000374,0.26883,-65.5416,9.639200000000002
315.50000000003746,0.38932,-55.9024,1.484800000000007
315.7500000000375,0.37076,-57.38720000000001,1.141600000000004
316.0000000000376,0.38503,-56.2456,3.562400000000004
316.25000000003763,0.42956000000000005,-52.6832,6.589600000000004
316.5000000000377,0.34719,-59.272800000000004,2.803999999999995
316.75000000003774,0.31214000000000003,-62.0768,0.7480000000000047
317.0000000000378,0.30279,-62.8248,0.882399999999997
317.25000000003786,0.31382,-61.942400000000006,3.397600000000004
317.5000000000379,0.35629,-58.5448,3.8168000000000006
317.75000000003797,0.404,-54.728,1.2320000000000064
318.000000000038,0.38859999999999995,-55.96000000000001,6.704000000000001
318.2500000000381,0.3048,-62.66400000000001,4.7224000000000075
318.50000000003814,0.36383,-57.9416,4.657600000000002
318.7500000000382,0.42205000000000004,-53.284,0.27360000000000184
319.00000000003826,0.41863,-53.5576,0.3856000000000037
319.2500000000383,0.41380999999999996,-53.943200000000004,1.6831999999999994
319.50000000003837,0.39276999999999995,-55.626400000000004,9.523199999999989
319.7500000000384,0.27373000000000003,-65.14959999999999,10.939999999999984
320.0000000000385,0.41048,-54.20960000000001,0.054400000000001114
320.25000000003854,0.41116,-54.15520000000001,1.2335999999999956
320.5000000000386,0.39574000000000004,-55.3888,10.474400000000003
320.75000000003865,0.26481,-65.8632,5.226400000000005
321.0000000000387,0.33014,-60.6368,4.978400000000001
321.25000000003877,0.26791,-65.6152,1.2095999999999947
321.5000000000388,0.28303,-64.4056,5.096800000000009
321.7500000000389,0.34674000000000005,-59.3088,0.18560000000000798
322.00000000003894,0.34442,-59.494400000000006,1.2320000000000064
322.250000000039,0.35982000000000003,-58.2624,8.61120000000001
322.50000000003905,0.25217999999999996,-66.87360000000001,5.643200000000007
322.7500000000391,0.32272,-61.2304,5.3847999999999985
323.00000000003917,0.39003,-55.845600000000005,2.004000000000005
323.2500000000392,0.41508,-53.8416,0.9727999999999994
323.5000000000393,0.40292000000000006,-54.8144,4.718400000000003
323.75000000003934,0.34394,-59.5328,3.7583999999999946
324.0000000000394,0.39092,-55.77440000000001,2.3640000000000043
324.25000000003945,0.42047,-53.4104,2.039999999999999
324.5000000000395,0.44597,-51.370400000000004,1.956000000000003
324.75000000003956,0.47042,-49.4144,1.0840000000000032
325.0000000000396,0.45687,-50.498400000000004,0.5615999999999914
325.2500000000397,0.46388999999999997,-49.93680000000001,1.3391999999999982
325.50000000003973,0.44715,-51.27600000000001,2.457599999999985
325.7500000000398,0.4164300000000001,-53.733599999999996,0.3351999999999933
326.00000000003985,0.42062,-53.3984,1.5592000000000041
326.2500000000399,0.40113000000000004,-54.957600000000006,1.2135999999999925
326.50000000003996,0.38596,-56.1712,2.8607999999999976
326.75000000004,0.42172,-53.3104,1.2896000000000072
327.0000000000401,0.4056,-54.60000000000001,4.116799999999991
327.25000000004013,0.35414,-58.7168,1.6936000000000035
327.5000000000402,0.33297,-60.4104,1.6128
327.75000000004025,0.31281,-62.0232,7.4208
328.0000000000403,0.40557,-54.6024,0.8263999999999925
328.25000000004036,0.4159,-53.77600000000001,3.107199999999999
328.5000000000404,0.45474,-50.66880000000001,0.8352000000000004
328.7500000000405,0.4443,-51.50400000000001,5.658399999999986
329.00000000004053,0.37357000000000007,-57.1624,4.880000000000003
329.2500000000406,0.31257,-62.0424,3.9423999999999992
329.50000000004064,0.36185,-58.1,2.700800000000001
329.7500000000407,0.39561,-55.3992,1.426399999999994
330.00000000004076,0.4134399999999999,-53.97280000000001,2.6112000000000037
330.2500000000408,0.4460800000000001,-51.3616,3.044800000000002
330.50000000004087,0.40801999999999994,-54.406400000000005,1.3599999999999994
330.7500000000409,0.42501999999999995,-53.046400000000006,5.258399999999995
331.000000000041,0.35929,-58.3048,7.358400000000003
331.25000000004104,0.26731000000000005,-65.6632,2.2319999999999993
331.5000000000411,0.29521000000000003,-63.431200000000004,5.330399999999997
331.75000000004115,0.22858,-68.7616,8.2864
332.0000000000412,0.33216,-60.4752,5.472000000000001
332.25000000004127,0.40056,-55.0032,0.3055999999999912
332.5000000000413,0.40438,-54.69760000000001,2.019199999999991
332.7500000000414,0.37914,-56.7168,0.9999999999999929
333.00000000004144,0.39164,-55.716800000000006,3.573599999999999
333.2500000000415,0.4363099999999999,-52.14320000000001,4.667999999999999
333.50000000004155,0.37795999999999996,-56.81120000000001,2.9343999999999966
333.7500000000416,0.34128,-59.7456,8.046399999999991
334.00000000004167,0.44186,-51.69920000000001,1.289599999999993
334.2500000000417,0.42573999999999995,-52.988800000000005,0.8888000000000105
334.5000000000418,0.43685000000000007,-52.099999999999994,0.3527999999999878
334.75000000004184,0.44126000000000004,-51.74720000000001,4.6447999999999965
335.0000000000419,0.38320000000000004,-56.392,8.5824
335.25000000004195,0.27592000000000005,-64.9744,10.864800000000002
335.500000000042,0.41173000000000004,-54.1096,4.0944
335.75000000004206,0.46291000000000004,-50.0152,0.588799999999992
336.0000000000421,0.47027,-49.42640000000001,0.37599999999999056
336.2500000000422,0.46557000000000004,-49.8024,0.015200000000000102
336.50000000004223,0.46576000000000006,-49.7872,5.47440000000001
336.7500000000423,0.39733,-55.26160000000001,3.760000000000005
337.00000000004235,0.44433,-51.5016,2.1088000000000022
337.2500000000424,0.47069,-49.3928,0.9575999999999993
337.50000000004246,0.45872,-50.3504,1.0944000000000003
337.7500000000425,0.47240000000000004,-49.256,0.7344000000000008
338.0000000000426,0.48158,-48.5216,0.16800000000001347
338.25000000004263,0.47947999999999996,-48.68960000000001,5.307999999999993
338.5000000000427,0.41313000000000005,-53.997600000000006,1.7319999999999993
338.75000000004275,0.39147999999999994,-55.729600000000005,12.254400000000004
339.0000000000428,0.2383,-67.98400000000001,6.878400000000006
339.25000000004286,0.32428,-61.1056,10.576799999999999
339.5000000000429,0.45648999999999995,-50.528800000000004,0.9960000000000022
339.750000000043,0.46894,-49.5328,3.9968000000000004
340.00000000004303,0.41898,-53.5296,1.117599999999996
340.2500000000431,0.40501000000000004,-54.6472,1.0751999999999953
340.50000000004314,0.41845,-53.572,0.48639999999999617
340.7500000000432,0.41237,-54.0584,1.1199999999999974
341.00000000004326,0.42637,-52.9384,4.787199999999999
341.2500000000433,0.36652999999999997,-57.7256,3.5319999999999894
341.50000000004337,0.41068,-54.19360000000001,0.5871999999999957
341.7500000000434,0.4033399999999999,-54.780800000000006,3.8312000000000026
342.0000000000435,0.45122999999999996,-50.949600000000004,5.352800000000002
342.25000000004354,0.38432,-56.302400000000006,12.309600000000003
342.5000000000436,0.23044999999999996,-68.61200000000001,9.622400000000006
342.75000000004366,0.35073000000000004,-58.9896,7.025599999999997
343.0000000000437,0.43855000000000005,-51.964000000000006,2.6832000000000065
343.25000000004377,0.47209,-49.2808,9.369600000000005
343.5000000000438,0.35497,-58.650400000000005,3.1696000000000026
343.7500000000439,0.39459,-55.4808,1.0088000000000008
344.00000000004394,0.38198,-56.4896,0.3768000000000029
344.250000000044,0.37727,-56.866400000000006,2.441600000000001
344.50000000004405,0.40779,-54.424800000000005,3.858399999999996
344.7500000000441,0.35956,-58.2832,3.612799999999993
345.00000000004417,0.4047199999999999,-54.67040000000001,2.5703999999999994
345.2500000000442,0.43685,-52.10000000000001,0.5432000000000059
345.5000000000443,0.44364,-51.5568,2.1407999999999916
345.75000000004434,0.4704,-49.41600000000001,6.451999999999991
346.0000000000444,0.38975000000000004,-55.868,5.4239999999999995
346.25000000004445,0.45755,-50.444,9.969600000000007
346.5000000000445,0.33293,-60.41360000000001,0.21599999999999397
346.75000000004457,0.33023,-60.6296,6.2575999999999965
347.0000000000446,0.40845000000000004,-54.37200000000001,2.6528000000000063
347.2500000000447,0.44161,-51.7192,0.666400000000003
347.50000000004474,0.43328,-52.385600000000004,13.524799999999992
347.7500000000448,0.26422,-65.9104,4.4447999999999865
348.00000000004485,0.31978,-61.46560000000001,6.013599999999997
348.2500000000449,0.39494999999999997,-55.45200000000001,5.587999999999994
348.50000000004496,0.3251,-61.040000000000006,3.8791999999999973
348.750000000045,0.27660999999999997,-64.9192,2.9784000000000006
349.0000000000451,0.31384,-61.9408,5.280799999999999
349.25000000004513,0.37985,-56.660000000000004,3.6248000000000005
349.5000000000452,0.42516,-53.0352,1.7184000000000026
349.75000000004525,0.44664000000000004,-51.3168,0.8424000000000049
350.0000000000453,0.43611000000000005,-52.159200000000006,5.055999999999997
350.25000000004536,0.37290999999999996,-57.2152,1.3359999999999985
350.5000000000454,0.35621,-58.5512,0.23760000000000048
350.7500000000455,0.35324,-58.7888,1.2735999999999947
351.00000000004553,0.36916,-57.51520000000001,1.0208000000000084
351.2500000000456,0.38192000000000004,-56.4944,1.0615999999999985
351.50000000004565,0.39519000000000004,-55.4328,5.081599999999995
351.7500000000457,0.45870999999999995,-50.351200000000006,5.7592
352.00000000004576,0.38671999999999995,-56.110400000000006,2.7807999999999993
352.2500000000458,0.35195999999999994,-58.891200000000005,6.300000000000004
352.5000000000459,0.43071000000000004,-52.5912,0.9239999999999995
352.75000000004593,0.44226,-51.6672,4.4336000000000055
353.000000000046,0.38683999999999996,-56.10080000000001,2.7911999999999964
353.25000000004604,0.35195,-58.892,2.9624000000000024
353.5000000000461,0.38898,-55.9296,2.81519999999999
353.75000000004616,0.42417,-53.11440000000001,9.667199999999994
354.0000000000462,0.30333,-62.781600000000005,8.335999999999991
354.25000000004627,0.19913,-71.1176,1.7567999999999984
354.5000000000463,0.22109,-69.3608,8.075999999999993
354.7500000000464,0.32204,-61.284800000000004,6.8408000000000015
355.00000000004644,0.23653,-68.1256,2.4696
355.2500000000465,0.26739999999999997,-65.656,4.023200000000003
355.50000000004655,0.31769000000000003,-61.6328,5.797600000000003
355.7500000000466,0.39016000000000006,-55.8352,1.8487999999999971
356.00000000004667,0.41326999999999997,-53.9864,3.5472000000000037
356.2500000000467,0.36893,-57.53360000000001,3.279999999999994
356.5000000000468,0.40992999999999996,-54.25360000000001,7.323199999999993
356.75000000004684,0.31839,-61.576800000000006,1.116800000000005
357.0000000000469,0.33235000000000003,-60.46,0.5544000000000011
357.25000000004695,0.33927999999999997,-59.9056,3.9727999999999994
357.500000000047,0.38894,-55.9328,0.42079999999999984
357.75000000004707,0.38368,-56.3536,1.3096000000000032
358.0000000000471,0.36731,-57.6632,7.598400000000005
358.2500000000472,0.46229000000000003,-50.0648,3.4392000000000067
358.50000000004724,0.41930000000000006,-53.504000000000005,0.09679999999999467
358.7500000000473,0.42051,-53.40720000000001,2.131999999999991
359.00000000004735,0.39386,-55.5392,4.678399999999996
359.2500000000474,0.45233999999999996,-50.860800000000005,1.6152000000000015
359.50000000004746,0.47253,-49.2456,3.413599999999988
359.7500000000475,0.5151999999999999,-45.832000000000015,4.413599999999995
360.0000000000476,0.46003,-50.24560000000001,4.137599999999999
360.25000000004763,0.40831,-54.38320000000001,1.8912000000000049
360.5000000000477,0.43194999999999995,-52.492000000000004,7.1591999999999985
360.75000000004775,0.34246,-59.6512,6.083199999999998
361.0000000000478,0.4185,-53.568000000000005,3.500000000000007
361.25000000004786,0.46225000000000005,-50.068,5.2080000000000055
361.5000000000479,0.39715,-55.276,0.2488000000000028
361.750000000048,0.39403999999999995,-55.524800000000006,6.393600000000006
362.00000000004803,0.47396000000000005,-49.1312,1.9736000000000047
362.2500000000481,0.44928999999999997,-51.104800000000004,1.7392000000000039
362.50000000004815,0.47103,-49.3656,0.705600000000004
362.7500000000482,0.47985000000000005,-48.66,6.511200000000002
363.00000000004826,0.39846,-55.1712,2.833599999999997
363.2500000000483,0.43388,-52.3376,0.4176000000000002
363.5000000000484,0.4391,-51.92,1.1240000000000023
363.75000000004843,0.45315000000000005,-50.796,0.25039999999999907
364.0000000000485,0.45628,-50.5456,0.09680000000000177
364.25000000004854,0.45749000000000006,-50.4488,5.064
364.5000000000486,0.39419000000000004,-55.5128,5.8367999999999896
364.75000000004866,0.46715,-49.67600000000001,3.2319999999999993
365.0000000000487,0.42675,-52.90800000000001,1.7520000000000024
365.2500000000488,0.40485,-54.66000000000001,8.493600000000008
365.50000000004883,0.51102,-46.1664,8.6312
365.7500000000489,0.40313,-54.7976,3.0408000000000044
366.00000000004894,0.44114000000000003,-51.7568,0.8151999999999973
366.250000000049,0.45133,-50.9416,0.5031999999999996
366.50000000004906,0.45762,-50.4384,6.494399999999999
366.7500000000491,0.37644,-56.9328,4.2623999999999995
367.00000000004917,0.42972,-52.6704,0.9280000000000044
367.2500000000492,0.41811999999999994,-53.598400000000005,0.9008000000000038
367.5000000000493,0.42938,-52.6976,2.4776000000000025
367.75000000004934,0.46035000000000004,-50.22,1.896000000000008
368.0000000000494,0.43665000000000004,-52.11600000000001,2.5911999999999935
368.25000000004945,0.40426,-54.7072,1.7631999999999977
368.5000000000495,0.4263,-52.944,8.096000000000004
368.75000000004957,0.3251,-61.040000000000006,5.994400000000006
369.0000000000496,0.40003,-55.0456,0.23439999999999372
369.2500000000497,0.40296000000000004,-54.81120000000001,3.8352000000000004
369.50000000004974,0.45089999999999997,-50.976000000000006,2.2775999999999925
369.7500000000498,0.42243,-53.2536,4.132000000000005
370.00000000004985,0.37078,-57.385600000000004,2.877600000000001
370.2500000000499,0.33480999999999994,-60.263200000000005,9.647200000000005
370.50000000004997,0.4554,-50.616,9.556000000000004
370.75000000005,0.33594999999999997,-60.172000000000004,0.7839999999999989
371.0000000000501,0.34574999999999995,-59.388000000000005,0.504800000000003
371.25000000005014,0.35206,-58.8832,5.627199999999988
371.5000000000502,0.42239999999999994,-53.256000000000014,5.4687999999999874
371.75000000005025,0.35404,-58.7248,6.655200000000001
372.0000000000503,0.43723,-52.0696,6.0168000000000035
372.25000000005036,0.36202000000000006,-58.086400000000005,8.301599999999993
372.5000000000504,0.46579,-49.78480000000001,4.463199999999986
372.7500000000505,0.41000000000000003,-54.248,7.5760000000000005
373.00000000005053,0.3153,-61.824,2.955199999999998
373.2500000000506,0.35224,-58.8688,0.5623999999999967
373.50000000005065,0.35927,-58.306400000000004,3.9024
373.7500000000507,0.4080500000000001,-54.404,2.029599999999995
374.00000000005076,0.38268,-56.4336,3.906399999999998
374.2500000000508,0.43151,-52.5272,2.52559999999999
374.5000000000509,0.46308,-50.00160000000001,1.9775999999999883
374.75000000005093,0.43836,-51.9792,3.5120000000000005
375.000000000051,0.48226,-48.4672,4.8600000000000065
375.25000000005105,0.42150999999999994,-53.327200000000005,0.4368000000000052
375.5000000000511,0.42697,-52.8904,1.339199999999991
375.75000000005116,0.44370999999999994,-51.55120000000001,3.034400000000005
376.0000000000512,0.48163999999999996,-48.5168,2.466399999999993
376.2500000000513,0.45081000000000004,-50.9832,0.22640000000000526
376.50000000005133,0.44798,-51.2096,2.2783999999999978
376.7500000000514,0.47646,-48.931200000000004,0.975200000000001
377.00000000005144,0.46426999999999996,-49.906400000000005,3.0607999999999933
377.2500000000515,0.5025299999999999,-46.84560000000001,2.2919999999999874
377.50000000005156,0.47388,-49.1376,0.4112000000000009
377.7500000000516,0.46874000000000005,-49.5488,1.8888000000000034
378.00000000005167,0.44512999999999997,-51.4376,0.25679999999999836
378.2500000000517,0.44192,-51.6944,2.0752000000000024
378.5000000000518,0.46786000000000005,-49.6192,0.8007999999999953
378.75000000005184,0.47786999999999996,-48.818400000000004,0.04079999999999728
379.0000000000519,0.47736,-48.8592,2.622400000000006
379.25000000005195,0.4445799999999999,-51.48160000000001,3.2760000000000034
379.500000000052,0.48552999999999996,-48.205600000000004,1.2439999999999927
379.75000000005207,0.46998000000000006,-49.4496,0.5408000000000115
380.0000000000521,0.46322,-49.99040000000001,2.015200000000007
380.2500000000522,0.48841,-47.9752,1.775199999999991
380.50000000005224,0.5105999999999999,-46.20000000000001,0.056799999999988415
380.7500000000523,0.5098900000000001,-46.2568,1.5239999999999938
381.00000000005235,0.52894,-44.732800000000005,0.4087999999999994
381.2500000000524,0.52383,-45.141600000000004,0.4528000000000034
381.50000000005247,0.52949,-44.6888,2.0671999999999997
381.7500000000525,0.50365,-46.756,1.2095999999999947
382.0000000000526,0.51877,-45.546400000000006,0.18239999999999412
382.25000000005264,0.51649,-45.7288,0.7160000000000082
382.5000000000527,0.5254400000000001,-45.01279999999999,0.8680000000000234
382.75000000005275,0.5145899999999999,-45.880800000000015,1.7679999999999865
383.0000000000528,0.49249,-47.6488,2.8344000000000023
383.25000000005286,0.45705999999999997,-50.483200000000004,3.3127999999999957
383.5000000000529,0.49847,-47.17040000000001,1.9623999999999953
383.750000000053,0.47394,-49.1328,0.47760000000000247
384.00000000005303,0.47991,-48.6552,2.671199999999999
384.2500000000531,0.44652000000000003,-51.3264,2.944800000000008
384.50000000005315,0.4097099999999999,-54.27120000000001,2.319200000000002
384.7500000000532,0.4387,-51.952000000000005,1.0328000000000017
385.00000000005326,0.45160999999999996,-50.919200000000004,4.655200000000001
385.2500000000533,0.39342,-55.574400000000004,5.421599999999998
385.5000000000534,0.46119000000000004,-50.152800000000006,1.0023999999999944
385.75000000005343,0.44866,-51.1552,1.0127999999999915
386.0000000000535,0.46132,-50.14240000000001,1.9343999999999895
386.25000000005355,0.43714000000000003,-52.0768,8.556800000000003
386.5000000000536,0.33018000000000003,-60.6336,6.1983999999999995
386.75000000005366,0.40766,-54.4352,0.7856000000000023
387.0000000000537,0.41748,-53.6496,5.906400000000005
387.2500000000538,0.34364999999999996,-59.556000000000004,4.892000000000003
387.50000000005383,0.4048,-54.664,9.7984
387.7500000000539,0.28232,-64.4624,3.764800000000001
388.00000000005394,0.32938,-60.6976,0.8352000000000004
388.250000000054,0.33982,-59.8624,1.9336000000000055
388.50000000005406,0.31565,-61.79600000000001,3.8216000000000108
388.7500000000541,0.36342,-57.974399999999996,3.4007999999999967
389.0000000000542,0.40593,-54.5736,1.5264000000000024
389.25000000005423,0.38685,-56.1,0.9600000000000009
389.5000000000543,0.37485,-57.06,4.042400000000008
389.75000000005434,0.32432,-61.10240000000001,1.1304000000000087
390.0000000000544,0.33845000000000003,-59.972,4.075200000000002
390.25000000005446,0.38939,-55.8968,3.538400000000003
390.5000000000545,0.34516,-59.4352,1.6616
390.75000000005457,0.36593,-57.7736,3.4231999999999942
391.0000000000546,0.40872,-54.35040000000001,1.3512000000000057
391.2500000000547,0.42561,-52.9992,4.436
391.50000000005474,0.37016000000000004,-57.4352,4.505599999999994
391.7500000000548,0.42648,-52.92960000000001,0.8000000000000043
392.00000000005485,0.43648,-52.1296,0.6400000000000077
392.2500000000549,0.4444800000000001,-51.489599999999996,0.5656000000000034
392.50000000005497,0.43741,-52.0552,3.534399999999991
392.750000000055,0.48159,-48.52080000000001,3.1151999999999944
393.0000000000551,0.44265,-51.636,0.9087999999999994
393.25000000005514,0.45400999999999997,-50.7272,2.275199999999998
393.5000000000552,0.42557,-53.0024,0.9015999999999948
393.75000000005525,0.41430000000000006,-53.903999999999996,0.9071999999999889
394.0000000000553,0.4256399999999999,-52.99680000000001,4.254400000000004
394.25000000005537,0.47881999999999997,-48.7424,2.9472000000000023
394.5000000000554,0.44197999999999993,-51.689600000000006,1.2199999999999918
394.7500000000555,0.42673000000000005,-52.9096,7.1255999999999915
395.00000000005554,0.5157999999999999,-45.784000000000006,1.3223999999999947
395.2500000000556,0.49927,-47.1064,1.588799999999999
395.50000000005565,0.47941,-48.6952,1.6951999999999998
395.7500000000557,0.45822,-50.3904,4.491199999999992
396.00000000005576,0.5143599999999999,-45.89920000000001,2.0335999999999927
396.2500000000558,0.48894000000000004,-47.9328,1.1720000000000041
396.5000000000559,0.5035900000000001,-46.760799999999996,2.749600000000001
396.75000000005593,0.4692200000000001,-49.5104,1.603200000000001
397.000000000056,0.44918,-51.1136,2.1599999999999966
397.25000000005605,0.47618,-48.9536,2.108000000000004
397.5000000000561,0.44982999999999995,-51.061600000000006,1.9520000000000053
397.75000000005616,0.47423000000000004,-49.1096,1.9008000000000038
398.0000000000562,0.49799000000000004,-47.2088,0.09599999999998943
398.2500000000563,0.4991899999999999,-47.11280000000001,1.8096000000000103
398.50000000005633,0.5218100000000001,-45.3032,0.0864000000000047
398.7500000000564,0.52073,-45.3896,0.3119999999999976
399.00000000005645,0.51683,-45.7016,1.1599999999999966
399.2500000000565,0.53133,-44.5416,1.3783999999999992
399.50000000005656,0.5141,-45.92,3.7031999999999954
399.7500000000566,0.46781000000000006,-49.6232,2.652799999999999
400.0000000000567,0.50097,-46.9704,1.048800000000007
400.25000000005673,0.48785999999999996,-48.019200000000005,0.0671999999999997
400.5000000000568,0.48702000000000006,-48.086400000000005,0.8912000000000049
400.75000000005684,0.49816000000000005,-47.1952,1.9791999999999987
401.0000000000569,0.5229,-45.216,2.2072000000000003
401.25000000005696,0.55049,-43.0088,0.35360000000000724
401.500000000057,0.5549100000000001,-42.655199999999994,2.627200000000009
401.75000000005707,0.52207,-45.2824,3.641600000000004
402.0000000000571,0.56759,-41.6408,0.6199999999999903
402.2500000000572,0.57534,-41.02080000000001,0.8439999999999941
402.50000000005724,0.56479,-41.8648,2.553600000000003
402.7500000000573,0.5967100000000001,-39.3112,0.19120000000000203
403.00000000005736,0.5991000000000001,-39.12,0.9423999999999921
403.2500000000574,0.61088,-38.177600000000005,0.2967999999999975
403.50000000005747,0.61459,-37.88080000000001,1.0239999999999938
403.7500000000575,0.60179,-38.9048,1.5863999999999976
404.0000000000576,0.58196,-40.4912,0.3327999999999989
404.25000000005764,0.5778000000000001,-40.824,0.3568000000000069
404.5000000000577,0.57334,-41.180800000000005,1.290399999999991
404.75000000005775,0.5572100000000001,-42.471199999999996,2.7591999999999857
405.0000000000578,0.5916999999999999,-39.71200000000001,0.8175999999999917
405.25000000005787,0.58148,-40.5296,0.5255999999999972
405.5000000000579,0.58805,-40.004000000000005,1.044799999999995
405.750000000058,0.57499,-41.0488,0.8967999999999989
406.00000000005804,0.5637800000000001,-41.9456,0.13759999999998485
406.2500000000581,0.5654999999999999,-41.808000000000014,1.5439999999999898
406.50000000005815,0.5462,-43.352000000000004,1.1976000000000084
406.7500000000582,0.5611700000000001,-42.154399999999995,0.5159999999999911
407.00000000005826,0.56762,-41.638400000000004,0.8391999999999982
407.2500000000583,0.55713,-42.4776,1.6448000000000036
407.5000000000584,0.53657,-44.122400000000006,2.211199999999998
407.75000000005844,0.50893,-46.333600000000004,2.892000000000003
408.0000000000585,0.54508,-43.4416,1.63600000000001
408.25000000005855,0.5246299999999999,-45.07760000000001,0.8551999999999893
408.5000000000586,0.5139400000000001,-45.9328,1.7368000000000023
408.75000000005866,0.5356500000000001,-44.196,0.6328000000000031
409.0000000000587,0.52774,-44.8288,0.09440000000000026
409.2500000000588,0.5289200000000001,-44.7344,0.2528000000000006
409.50000000005883,0.53208,-44.4816,2.9832000000000036
409.7500000000589,0.56937,-41.4984,0.495199999999997
410.00000000005895,0.5755600000000001,-41.0032,0.1431999999999931
410.250000000059,0.5773499999999999,-40.86000000000001,0.475999999999992
410.50000000005906,0.5714,-41.336,2.1495999999999995
410.7500000000591,0.5982700000000001,-39.1864,1.4495999999999896
411.0000000000592,0.6163899999999999,-37.73680000000001,0.07840000000000202
411.25000000005923,0.61737,-37.65840000000001,0.38400000000000745
411.5000000000593,0.62217,-37.2744,0.1191999999999993
411.75000000005934,0.62068,-37.3936,1.2968000000000046
412.0000000000594,0.6368900000000001,-36.096799999999995,0.6512000000000171
412.25000000005946,0.6287499999999999,-36.74800000000001,0.3207999999999842
412.5000000000595,0.6247400000000001,-37.068799999999996,0.05840000000001311
412.7500000000596,0.62401,-37.12720000000001,0.6247999999999934
413.00000000005963,0.6162,-37.752,0.29999999999999716
413.2500000000597,0.61995,-37.452000000000005,0.911999999999999
413.50000000005974,0.63135,-36.540000000000006,0.5183999999999997
413.7500000000598,0.6248699999999999,-37.058400000000006,0.47759999999999536
414.00000000005986,0.6189,-37.536,1.009600000000006
414.2500000000599,0.6315200000000001,-36.526399999999995,0.41680000000001627
414.50000000005997,0.6263099999999999,-36.94320000000001,0.2991999999999919
414.75000000006,0.62257,-37.2424,1.9120000000000061
415.0000000000601,0.6464700000000001,-35.3304,1.1655999999999977
415.25000000006014,0.6610400000000001,-34.1648,0.5568000000000026
415.5000000000602,0.65408,-34.7216,0.8840000000000003
415.75000000006025,0.64303,-35.6056,0.6111999999999966
416.0000000000603,0.65067,-34.994400000000006,0.7471999999999923
416.25000000006037,0.6413300000000001,-35.7416,0.5880000000000081
416.5000000000604,0.63398,-36.329600000000006,0.6663999999999959
416.7500000000605,0.62565,-36.996,0.38000000000000256
417.00000000006054,0.6209,-37.376000000000005,1.8719999999999928
417.2500000000606,0.5975,-39.248,0.495199999999997
417.50000000006065,0.6036900000000001,-38.7528,0.2687999999999988
417.7500000000607,0.60705,-38.484,0.09199999999999164
418.00000000006077,0.6059000000000001,-38.57599999999999,0.5048000000000243
418.2500000000608,0.5995899999999998,-39.08080000000002,3.5191999999999837
418.5000000000609,0.5556,-42.6,0.784799999999997
418.75000000006094,0.56541,-41.815200000000004,3.675999999999995
419.000000000061,0.51946,-45.4912,0.1232000000000113
419.25000000006105,0.5179199999999999,-45.61440000000001,4.716799999999992
419.5000000000611,0.45896,-50.3312,0.16560000000000485
419.75000000006116,0.46103000000000005,-50.1656,2.132799999999989
420.0000000000612,0.48769,-48.03280000000001,3.034400000000005
420.2500000000613,0.52562,-44.998400000000004,0.062400000000003786
420.50000000006133,0.52484,-45.06080000000001,2.479999999999997
420.7500000000614,0.49383999999999995,-47.540800000000004,3.0232000000000028
421.00000000006145,0.53163,-44.5176,1.676000000000002
421.2500000000615,0.51068,-46.1936,2.383200000000002
421.50000000006156,0.54047,-43.8104,0.14240000000000208
421.7500000000616,0.54225,-43.668,1.0599999999999952
422.0000000000617,0.5555,-42.608000000000004,1.043200000000006
422.25000000006173,0.5424599999999999,-43.65120000000001,3.1047999999999902
422.5000000000618,0.50365,-46.756,1.3175999999999988
422.75000000006185,0.52012,-45.4384,1.5160000000000053
423.0000000000619,0.53907,-43.922399999999996,0.14000000000000057
423.25000000006196,0.5408200000000001,-43.782399999999996,1.5352000000000103
423.500000000062,0.5216299999999999,-45.317600000000006,1.808799999999998
423.7500000000621,0.49901999999999996,-47.126400000000004,5.482399999999998
424.00000000006213,0.56755,-41.644000000000005,0.7807999999999993
424.2500000000622,0.55779,-42.424800000000005,0.8808000000000078
424.50000000006224,0.5688000000000001,-41.544,0.251199999999983
424.7500000000623,0.5719399999999999,-41.292800000000014,2.2816000000000187
425.00000000006236,0.6004600000000001,-39.011199999999995,1.473600000000019
425.2500000000624,0.5820399999999999,-40.484800000000014,1.0711999999999904
425.50000000006247,0.56865,-41.556000000000004,0.15039999999999765
425.7500000000625,0.57053,-41.40560000000001,0.9135999999999953
426.0000000000626,0.55911,-42.3192,2.4080000000000013
426.25000000006264,0.52901,-44.7272,0.6967999999999961
426.5000000000627,0.53772,-44.03040000000001,3.857599999999991
426.75000000006276,0.48950000000000005,-47.888,2.361600000000003
427.0000000000628,0.45998,-50.2496,2.828800000000001
427.25000000006287,0.49534,-47.4208,0.8503999999999934
427.5000000000629,0.4847100000000001,-48.27119999999999,0.9151999999999916
427.750000000063,0.49615,-47.356,2.2280000000000086
428.00000000006304,0.4683,-49.58400000000001,9.514399999999995
428.2500000000631,0.34937,-59.098400000000005,3.709600000000002
428.50000000006315,0.39574000000000004,-55.3888,0.5615999999999985
428.7500000000632,0.40276000000000006,-54.827200000000005,5.2224
429.00000000006327,0.46804000000000007,-49.604800000000004,5.670400000000008
429.2500000000633,0.5389200000000001,-43.9344,0.029599999999994964
429.5000000000634,0.53929,-43.9048,4.6152000000000015
429.75000000006344,0.5969800000000001,-39.2896,3.4928000000000026
430.0000000000635,0.55332,-42.7824,0.5623999999999967
430.25000000006355,0.54629,-43.3448,2.628000000000007
430.5000000000636,0.5791400000000001,-40.71679999999999,1.053600000000003
430.75000000006366,0.5659700000000001,-41.770399999999995,1.373599999999989
431.0000000000637,0.58314,-40.396800000000006,0.2336000000000027
431.2500000000638,0.58022,-40.63040000000001,0.7160000000000011
431.50000000006384,0.57127,-41.34640000000001,1.1239999999999881
431.7500000000639,0.55722,-42.4704,5.4816
432.00000000006395,0.4887,-47.952,0.28880000000000905
432.250000000064,0.4850899999999999,-48.24080000000001,1.5984000000000052
432.50000000006406,0.50507,-46.6424,8.0
432.7500000000641,0.40507,-54.6424,6.495999999999995
433.0000000000642,0.4862699999999999,-48.14640000000001,2.731200000000001
433.25000000006423,0.5204099999999999,-45.415200000000006,6.399999999999999
433.5000000000643,0.44040999999999997,-51.815200000000004,3.074399999999997
433.75000000006435,0.40198,-54.8896,0.11280000000000001
434.0000000000644,0.40339,-54.7768,7.422399999999996
434.25000000006446,0.49617000000000006,-47.354400000000005,1.0128000000000057
434.5000000000645,0.50883,-46.3416,3.7608000000000033
434.7500000000646,0.46182,-50.1024,3.6704000000000008
435.00000000006463,0.5077,-46.432,5.203999999999986
435.2500000000647,0.5727499999999999,-41.228000000000016,1.7896000000000143
435.50000000006474,0.59512,-39.4384,0.8295999999999992
435.7500000000648,0.58475,-40.268,0.5720000000000027
436.00000000006486,0.5776,-40.84,0.6848000000000027
436.2500000000649,0.58616,-40.1552,1.0152
436.500000000065,0.57347,-41.1704,0.8887999999999963
436.75000000006503,0.5623600000000001,-42.0592,2.5863999999999905
437.0000000000651,0.5946899999999999,-39.47280000000001,0.3231999999999928
437.25000000006514,0.59065,-39.796,0.036800000000006605
437.5000000000652,0.59019,-39.832800000000006,1.4624000000000095
437.75000000006526,0.6084700000000001,-38.3704,0.7839999999999989
438.0000000000653,0.6182700000000001,-37.5864,1.5919999999999987
438.25000000006537,0.63817,-35.9944,0.8616000000000099
438.5000000000654,0.6274,-36.85600000000001,0.07680000000000575
438.7500000000655,0.62836,-36.7792,1.0120000000000005
439.00000000006554,0.64101,-35.7672,0.2831999999999937
439.2500000000656,0.6374700000000001,-36.050399999999996,1.4040000000000106
439.50000000006565,0.6199199999999999,-37.45440000000001,0.8911999999999978
439.7500000000657,0.60878,-38.345600000000005,0.7111999999999981
440.00000000006577,0.59989,-39.0568,1.5039999999999978
440.2500000000658,0.61869,-37.552800000000005,0.9223999999999961
440.5000000000659,0.60716,-38.4752,0.1752000000000038
440.75000000006594,0.60497,-38.650400000000005,0.7471999999999923
441.000000000066,0.5956300000000001,-39.3976,2.240799999999993
441.25000000006605,0.62364,-37.156800000000004,1.053600000000003
441.5000000000661,0.63681,-36.1032,0.015200000000007208
441.75000000006617,0.63662,-36.11840000000001,1.2927999999999926
442.0000000000662,0.62046,-37.4112,0.6336000000000013
442.2500000000663,0.61254,-38.0448,0.9975999999999985
442.50000000006634,0.60007,-39.0424,1.117599999999996
442.7500000000664,0.5861000000000001,-40.16,1.8096000000000103
443.00000000006645,0.56348,-41.96960000000001,4.833600000000004
443.2500000000665,0.6239,-37.136,1.3936000000000064
443.50000000006656,0.6064799999999999,-38.52960000000001,1.7376000000000076
443.7500000000666,0.6282,-36.792,0.35120000000000573
444.0000000000667,0.6325900000000001,-36.440799999999996,0.5743999999999971
444.25000000006673,0.6397700000000001,-35.8664,1.1504000000000048
444.5000000000668,0.62539,-37.0168,0.8823999999999899
444.75000000006685,0.6143600000000001,-37.89919999999999,2.5087999999999937
445.0000000000669,0.6457200000000001,-35.3904,0.20080000000000098
445.25000000006696,0.6482300000000001,-35.1896,1.6384000000000043
445.500000000067,0.62775,-36.828,0.8639999999999972
445.7500000000671,0.61695,-37.692,1.4727999999999994
446.00000000006713,0.5985400000000001,-39.1648,7.494399999999999
446.2500000000672,0.5048600000000001,-46.6592,0.012000000000000455
446.50000000006725,0.5050100000000001,-46.6472,10.297600000000003
446.7500000000673,0.6337300000000001,-36.349599999999995,4.7768000000000015
447.00000000006736,0.5740200000000001,-41.1264,1.735200000000006
447.2500000000674,0.55233,-42.8616,5.391199999999998
447.5000000000675,0.48494000000000004,-48.2528,3.6439999999999984
447.75000000006753,0.53049,-44.6088,0.09360000000000213
448.0000000000676,0.52932,-44.702400000000004,1.9592000000000027
448.25000000006764,0.55381,-42.7432,4.780799999999999
448.5000000000677,0.49405,-47.524,6.503999999999998
448.75000000006776,0.57535,-41.02,2.7431999999999945
449.0000000000678,0.60964,-38.27680000000001,0.6208000000000027
449.25000000006787,0.6174,-37.656000000000006,0.911200000000008
449.5000000000679,0.6287900000000001,-36.7448,0.10799999999999699
449.750000000068,0.63014,-36.6368,1.347200000000008
450.00000000006804,0.6133,-37.98400000000001,0.05999999999998806
450.2500000000681,0.61255,-38.044,0.010400000000011289
450.50000000006816,0.61242,-38.05440000000001,0.6071999999999989
450.7500000000682,0.62001,-37.44720000000001,2.0855999999999923
451.00000000006827,0.59394,-39.5328,0.6591999999999913
451.2500000000683,0.6021799999999999,-38.87360000000001,0.4000000000000057
451.5000000000684,0.6071799999999999,-38.473600000000005,0.11520000000000863
451.75000000006844,0.60862,-38.358399999999996,1.5224000000000046
452.0000000000685,0.5895900000000001,-39.8808,8.133600000000001
452.25000000006855,0.48792,-48.0144,2.2183999999999955
452.5000000000686,0.5156499999999999,-45.79600000000001,5.644800000000004
452.75000000006867,0.58621,-40.1512,2.358400000000003
453.0000000000687,0.6156900000000001,-37.7928,3.5360000000000014
453.2500000000688,0.57149,-41.3288,2.529599999999995
453.50000000006884,0.6031099999999999,-38.799200000000006,0.3631999999999991
453.7500000000689,0.5985699999999999,-39.162400000000005,1.8887999999999963
454.00000000006895,0.62218,-37.27360000000001,4.718400000000003
454.250000000069,0.5631999999999999,-41.99200000000001,0.7711999999999861
454.50000000006906,0.55356,-42.7632,2.628799999999991
454.7500000000691,0.5864199999999999,-40.13440000000001,3.9231999999999942
455.0000000000692,0.6354599999999999,-36.21120000000001,0.009600000000013154
455.25000000006924,0.63558,-36.2016,0.2143999999999977
455.5000000000693,0.63826,-35.9872,0.7967999999999975
455.75000000006935,0.64822,-35.190400000000004,0.9112000000000009
456.0000000000694,0.63683,-36.101600000000005,2.1743999999999986
456.25000000006946,0.66401,-33.927200000000006,5.1096000000000075
456.5000000000695,0.6001399999999999,-39.036800000000014,2.9272000000000133
456.7500000000696,0.63673,-36.1096,0.30880000000000507
457.00000000006963,0.6405900000000001,-35.800799999999995,1.6007999999999925
457.2500000000697,0.6606,-34.2,0.7744000000000071
457.50000000006975,0.6509199999999999,-34.97440000000001,0.23279999999999745
457.7500000000698,0.64801,-35.20720000000001,2.0959999999999965
458.00000000006986,0.62181,-37.303200000000004,1.7880000000000038
458.2500000000699,0.6441600000000001,-35.5152,1.1463999999999999
458.50000000007,0.62983,-36.6616,0.7679999999999936
458.75000000007003,0.6394299999999999,-35.893600000000006,0.28079999999999217
459.0000000000701,0.63592,-36.1744,2.063199999999995
459.25000000007014,0.66171,-34.111200000000004,2.8615999999999886
459.5000000000702,0.6259400000000002,-36.97279999999999,0.6608000000000089
459.75000000007026,0.61768,-37.6336,0.41200000000000614
460.0000000000703,0.6125299999999999,-38.04560000000001,1.779200000000003
460.2500000000704,0.63477,-36.266400000000004,0.3856000000000037
460.50000000007043,0.63959,-35.8808,0.4799999999999969
460.7500000000705,0.6335900000000001,-36.3608,1.8903999999999996
461.00000000007054,0.65722,-34.4704,1.4784000000000006
461.2500000000706,0.6757000000000001,-32.992,0.4824000000000055
461.50000000007066,0.66967,-33.4744,7.254400000000011
461.7500000000707,0.5789899999999999,-40.728800000000014,6.680800000000012
462.00000000007077,0.6625,-34.048,0.16399999999999437
462.2500000000708,0.66455,-33.88400000000001,1.8936000000000064
462.5000000000709,0.6408799999999999,-35.777600000000014,0.30640000000001066
462.75000000007094,0.64471,-35.4712,1.9335999999999913
463.000000000071,0.6205400000000001,-37.404799999999994,0.8568000000000069
463.25000000007105,0.60983,-38.2616,2.9104000000000028
463.5000000000711,0.6462100000000001,-35.3512,0.6943999999999946
463.75000000007117,0.65489,-34.656800000000004,1.220799999999997
464.0000000000712,0.6701499999999999,-33.43600000000001,1.8696000000000055
464.2500000000713,0.69352,-31.5664,0.09759999999998925
464.50000000007134,0.6947399999999999,-31.468800000000012,0.8631999999999884
464.7500000000714,0.6839500000000001,-32.332,1.2711999999999968
465.00000000007145,0.69984,-31.060800000000004,1.340800000000005
465.2500000000715,0.6830799999999999,-32.40160000000001,0.6096000000000004
465.50000000007157,0.67546,-33.01120000000001,0.582400000000014
465.7500000000716,0.6827400000000001,-32.428799999999995,0.08959999999998303
466.0000000000717,0.6838599999999999,-32.33920000000001,0.8392000000000088
466.25000000007174,0.69435,-31.500000000000004,1.635200000000001
466.5000000000718,0.71479,-29.864800000000002,0.5776000000000074
466.75000000007185,0.7075699999999999,-30.44240000000001,0.16399999999999793
467.0000000000719,0.7096199999999999,-30.278400000000012,0.8319999999999865
467.25000000007196,0.6992200000000001,-31.1104,0.32560000000000144
467.500000000072,0.69515,-31.436,1.2720000000000127
467.7500000000721,0.6792499999999999,-32.70800000000001,2.1463999999999928
468.00000000007213,0.65242,-34.854400000000005,1.2783999999999907
468.2500000000722,0.6364400000000001,-36.132799999999996,1.9399999999999906
468.50000000007225,0.66069,-34.192800000000005,0.4376000000000033
468.7500000000723,0.66616,-33.7552,0.7735999999999947
469.00000000007236,0.6758299999999999,-32.98160000000001,0.5056000000000083
469.2500000000724,0.68215,-32.476,0.5040000000000049
469.5000000000725,0.67585,-32.980000000000004,0.019199999999997885
469.75000000007253,0.67609,-32.960800000000006,1.2248000000000019
470.0000000000726,0.6607799999999999,-34.18560000000001,1.3655999999999935
470.25000000007265,0.64371,-35.5512,1.2439999999999927
470.5000000000727,0.65926,-34.30720000000001,0.047999999999994714
470.75000000007276,0.65866,-34.3552,2.984799999999993
471.0000000000728,0.6213500000000001,-37.339999999999996,4.455199999999998
471.2500000000729,0.6770400000000001,-32.8848,2.422399999999996
471.50000000007293,0.6467600000000001,-35.307199999999995,0.22400000000000375
471.750000000073,0.6439600000000001,-35.5312,1.323999999999998
472.00000000007304,0.66051,-34.2072,2.416000000000011
472.2500000000731,0.6303099999999999,-36.62320000000001,1.8559999999999874
472.50000000007316,0.60711,-38.4792,1.883199999999988
472.7500000000732,0.6306499999999999,-36.59600000000001,1.6928000000000054
473.00000000007327,0.65181,-34.903200000000005,2.010400000000004
473.2500000000733,0.67694,-32.8928,5.007199999999997
473.5000000000734,0.6143500000000001,-37.9,0.3976000000000042
473.75000000007344,0.6193200000000001,-37.502399999999994,1.1088000000000093
474.0000000000735,0.60546,-38.611200000000004,0.6768000000000001
474.25000000007356,0.61392,-37.934400000000004,2.078400000000002
474.5000000000736,0.6399,-35.856,0.6255999999999986
474.75000000007367,0.64772,-35.2304,1.4391999999999996
475.0000000000737,0.62973,-36.6696,4.7823999999999955
475.2500000000738,0.5699500000000001,-41.452,3.29999999999999
475.50000000007384,0.6112,-38.15200000000001,3.6744000000000057
475.7500000000739,0.65713,-34.4776,0.299199999999999
476.00000000007395,0.65339,-34.7768,0.30000000000000426
476.250000000074,0.64964,-35.076800000000006,4.985599999999998
476.50000000007407,0.58732,-40.062400000000004,2.0327999999999946
476.7500000000741,0.6127299999999999,-38.02960000000001,0.3655999999999935
477.0000000000742,0.60816,-38.3952,0.9968000000000004
477.25000000007424,0.5957,-39.392,4.068000000000005
477.5000000000743,0.6465500000000001,-35.324,1.7712000000000145
477.75000000007435,0.6244099999999999,-37.09520000000001,0.7304000000000102
478.0000000000744,0.63354,-36.3648,1.4808000000000021
478.25000000007446,0.65205,-34.884,0.3960000000000079
478.5000000000745,0.6470999999999999,-35.28000000000001,0.4351999999999947
478.7500000000746,0.6525399999999999,-34.84480000000001,0.6551999999999936
479.00000000007464,0.64435,-35.50000000000001,3.867999999999995
479.2500000000747,0.596,-39.368,4.060799999999993
479.50000000007475,0.6467599999999999,-35.30720000000001,2.1480000000000103
479.7500000000748,0.67361,-33.1592,2.0863999999999976
480.00000000007486,0.64753,-35.245599999999996,2.1888000000000076
480.2500000000749,0.62017,-37.434400000000004,1.3072000000000017
480.500000000075,0.63651,-36.1272,0.2552000000000021
480.75000000007503,0.63332,-36.382400000000004,3.878399999999999
481.0000000000751,0.6818,-32.504000000000005,3.029599999999995
481.25000000007515,0.64393,-35.5336,7.665600000000005
481.5000000000752,0.54811,-43.199200000000005,6.454400000000007
481.75000000007526,0.6287900000000001,-36.7448,3.6095999999999933
482.0000000000753,0.67391,-33.135200000000005,0.7039999999999935
482.2500000000754,0.6651100000000001,-33.8392,0.7616000000000156
482.50000000007543,0.6555899999999999,-34.600800000000014,0.28959999999998587
482.7500000000755,0.65197,-34.8904,1.264799999999994
483.00000000007554,0.6677799999999999,-33.625600000000006,1.469600000000007
483.2500000000756,0.68615,-32.156,1.990400000000001
483.50000000007566,0.66127,-34.1464,5.031199999999998
483.7500000000757,0.59838,-39.1776,2.39759999999999
484.0000000000758,0.62835,-36.78000000000001,3.1119999999999948
484.25000000007583,0.6672499999999999,-33.66800000000001,0.36640000000002004
484.5000000000759,0.6718300000000001,-33.30159999999999,1.2576000000000036
484.75000000007594,0.6561100000000001,-34.5592,2.0360000000000085
485.000000000076,0.63066,-36.595200000000006,2.921599999999991
485.25000000007606,0.6671799999999999,-33.673600000000015,0.4608000000000132
485.5000000000761,0.67294,-33.2128,3.7432000000000016
485.75000000007617,0.62615,-36.956,2.4936000000000007
486.0000000000762,0.59498,-39.449600000000004,3.1888000000000076
486.2500000000763,0.6348400000000001,-36.260799999999996,0.9480000000000004
486.50000000007634,0.6466900000000001,-35.312799999999996,0.22159999999999513
486.7500000000764,0.64946,-35.0912,0.240000000000002
487.00000000007645,0.64646,-35.3312,0.028799999999996828
487.2500000000765,0.64682,-35.302400000000006,0.9567999999999941
487.50000000007657,0.6587799999999999,-34.34560000000001,0.49200000000001154
487.7500000000766,0.66493,-33.8536,1.4928000000000026
488.0000000000767,0.64627,-35.3464,2.1392000000000095
488.25000000007674,0.6195299999999999,-37.48560000000001,0.4823999999999984
488.5000000000768,0.6134999999999999,-37.96800000000001,0.8183999999999969
488.75000000007685,0.60327,-38.78640000000001,1.3216000000000037
489.0000000000769,0.5867499999999999,-40.10800000000001,0.6608000000000018
489.25000000007697,0.5950099999999999,-39.44720000000001,0.47279999999999944
489.500000000077,0.5891,-39.92000000000001,2.2272000000000105
489.7500000000771,0.61694,-37.6928,1.2327999999999903
490.00000000007714,0.63235,-36.46000000000001,0.15040000000000475
490.2500000000772,0.63423,-36.3096,0.563999999999993
490.50000000007725,0.6271800000000001,-36.873599999999996,0.3136000000000152
490.7500000000773,0.6232599999999999,-37.18720000000001,0.6599999999999895
491.00000000007736,0.6150100000000001,-37.8472,0.6704000000000008
491.2500000000774,0.60663,-38.5176,0.2688000000000059
491.5000000000775,0.60327,-38.78640000000001,0.38399999999999324
491.75000000007753,0.6080699999999999,-38.402400000000014,1.8751999999999782
492.0000000000776,0.5846300000000001,-40.27759999999999,2.255999999999986
492.25000000007765,0.61283,-38.02160000000001,0.09840000000000515
492.5000000000777,0.6115999999999999,-38.12000000000001,0.7384000000000057
492.75000000007776,0.62083,-37.381600000000006,0.4031999999999911
493.0000000000778,0.6157900000000001,-37.7848,0.41199999999999903
493.2500000000779,0.62094,-37.3728,0.014400000000009072
493.50000000007793,0.62076,-37.38720000000001,1.108000000000004
493.750000000078,0.63461,-36.2792,0.34720000000000084
494.00000000007805,0.63027,-36.626400000000004,0.4136000000000024
