Time[s],Volt[V],ReceivedPower[dBm],1step_diff[dB]
1.0000000000000002,0.24043,-67.8136,0.2880000000000109
1.5000000000000007,0.289885,-63.857200000000006,3.956399999999988
2.000000000000001,0.25333,-66.7816,-2.9243999999999915
2.499999999999999,0.24565500000000004,-67.3956,-0.6140000000000043
2.9999999999999973,0.3015,-62.928000000000004,4.467599999999997
3.4999999999999956,0.29127000000000003,-63.7464,-0.8183999999999969
3.999999999999994,0.28681999999999996,-64.1024,-0.35600000000000165
4.499999999999992,0.29513999999999996,-63.436800000000005,0.6655999999999977
4.99999999999999,0.328925,-60.734,2.7028000000000034
5.4999999999999885,0.322175,-61.274,-0.5399999999999991
5.999999999999987,0.319885,-61.45720000000001,-0.18320000000000647
6.499999999999985,0.33315,-60.396,1.0612000000000066
6.999999999999983,0.31523,-61.8296,-1.4335999999999984
7.499999999999981,0.2954,-63.416000000000004,-1.5864000000000047
7.99999999999998,0.283365,-64.3788,-0.9627999999999943
8.499999999999986,0.28069,-64.5928,-0.21399999999999864
8.999999999999993,0.28619000000000006,-64.1528,0.4399999999999977
9.5,0.283945,-64.3324,-0.17960000000000775
10.000000000000007,0.31622500000000003,-61.75000000000001,2.5824
10.500000000000014,0.304215,-62.7108,-0.9607999999999919
11.000000000000021,0.304355,-62.69960000000001,0.011199999999988108
11.500000000000028,0.309315,-62.302800000000005,0.39680000000000604
12.000000000000036,0.290705,-63.7916,-1.4887999999999977
12.500000000000043,0.28912000000000004,-63.9184,-0.1267999999999958
13.00000000000005,0.288725,-63.95,-0.03160000000000451
13.500000000000057,0.302055,-62.88360000000001,1.0663999999999945
14.000000000000064,0.29496,-63.4512,-0.5675999999999917
14.500000000000071,0.3016,-62.92,0.5311999999999983
15.000000000000078,0.29919000000000007,-63.1128,-0.1927999999999983
15.500000000000085,0.29879999999999995,-63.144000000000005,-0.031200000000005446
16.000000000000092,0.289465,-63.890800000000006,-0.7468000000000004
16.5000000000001,0.30734000000000006,-62.4608,1.4300000000000068
17.000000000000107,0.30592500000000006,-62.574000000000005,-0.11320000000000618
17.500000000000114,0.293095,-63.6004,-1.0263999999999953
18.00000000000012,0.27842,-64.7744,-1.1739999999999995
18.500000000000128,0.289735,-63.8692,0.9052000000000007
19.000000000000135,0.26066,-66.1952,-2.3260000000000005
19.500000000000142,0.29531500000000005,-63.4228,2.7723999999999975
20.00000000000015,0.27908499999999997,-64.7212,-1.2983999999999938
20.500000000000156,0.254965,-66.6508,-1.9296000000000078
21.000000000000163,0.29183,-63.7016,2.9492000000000047
21.50000000000017,0.27957,-64.6824,-0.9808000000000021
22.000000000000178,0.25751500000000005,-66.4468,-1.7643999999999949
22.500000000000185,0.27934000000000003,-64.7008,1.7459999999999951
23.000000000000192,0.25362,-66.75840000000001,-2.057600000000008
23.5000000000002,0.25764000000000004,-66.43679999999999,0.32160000000001787
24.000000000000206,0.27994,-64.6528,1.7839999999999918
24.500000000000213,0.274255,-65.1076,-0.45480000000000587
25.00000000000022,0.26439999999999997,-65.896,-0.7883999999999958
25.500000000000227,0.29197000000000006,-63.6904,2.205600000000004
26.000000000000234,0.26996499999999996,-65.4508,-1.7604000000000042
26.50000000000024,0.273055,-65.2036,0.24720000000000653
27.00000000000025,0.25597499999999995,-66.57000000000001,-1.366400000000013
27.500000000000256,0.28420000000000006,-64.312,2.2580000000000098
28.000000000000263,0.282295,-64.4644,-0.1524000000000001
28.50000000000027,0.27275,-65.228,-0.7635999999999967
29.000000000000277,0.25441,-66.6952,-1.4672000000000054
29.500000000000284,0.23033,-68.6216,-1.926400000000001
30.00000000000029,0.23086,-68.5792,0.04240000000000066
30.5000000000003,0.228185,-68.7932,-0.21399999999999864
31.000000000000306,0.225515,-69.0068,-0.21359999999999957
31.500000000000313,0.21443500000000001,-69.8932,-0.8863999999999947
32.00000000000032,0.22457,-69.0824,0.8107999999999862
32.50000000000029,0.24187999999999996,-67.69760000000001,1.3847999999999985
33.00000000000026,0.23335500000000003,-68.3796,-0.681999999999988
33.500000000000234,0.27089,-65.37679999999999,3.0028000000000077
34.000000000000206,0.25659,-66.52080000000001,-1.1440000000000197
34.50000000000018,0.27581500000000003,-64.9828,1.538000000000011
35.00000000000015,0.2650100000000001,-65.8472,-0.8644000000000034
35.50000000000012,0.29525999999999997,-63.427200000000006,2.4199999999999946
36.00000000000009,0.309395,-62.296400000000006,1.1308000000000007
36.500000000000064,0.30049000000000003,-63.0088,-0.7123999999999953
37.000000000000036,0.323365,-61.1788,1.8299999999999983
37.50000000000001,0.31515,-61.836,-0.657199999999996
37.99999999999998,0.31228500000000003,-62.0652,-0.22919999999999874
38.49999999999995,0.30535,-62.620000000000005,-0.5548000000000073
38.99999999999992,0.30630500000000005,-62.5436,0.07640000000000668
39.49999999999989,0.306935,-62.49320000000001,0.05039999999998912
39.999999999999865,0.313635,-61.9572,0.5360000000000085
40.49999999999984,0.291815,-63.70280000000001,-1.7456000000000103
40.99999999999981,0.315915,-61.774800000000006,1.9280000000000044
41.49999999999978,0.28852,-63.9664,-2.191599999999994
41.99999999999975,0.30893000000000004,-62.3336,1.6328000000000031
42.49999999999972,0.293835,-63.541199999999996,-1.2075999999999993
42.999999999999694,0.29601500000000003,-63.3668,0.17439999999999856
43.499999999999666,0.29457999999999995,-63.48160000000001,-0.11480000000000956
43.99999999999964,0.28569000000000006,-64.1928,-0.7111999999999981
44.49999999999961,0.27471,-65.0712,-0.8783999999999992
44.99999999999958,0.30158,-62.921600000000005,2.1495999999999995
45.49999999999955,0.29573499999999997,-63.3892,-0.46759999999999735
45.999999999999524,0.302355,-62.85960000000001,0.529599999999995
46.499999999999496,0.31613,-61.757600000000004,1.1020000000000039
46.99999999999947,0.316315,-61.7428,0.014800000000001035
47.49999999999944,0.313295,-61.9844,-0.24159999999999826
47.99999999999941,0.31839500000000004,-61.57640000000001,0.40799999999999415
48.49999999999938,0.31863499999999995,-61.5572,0.01920000000000499
48.99999999999935,0.308735,-62.3492,-0.7920000000000016
49.499999999999325,0.27634499999999995,-64.94040000000001,-2.5912000000000077
49.9999999999993,0.26122,-66.1504,-1.2099999999999937
50.49999999999927,0.26681499999999997,-65.7028,0.44760000000000844
50.99999999999924,0.29163000000000006,-63.7176,1.985199999999999
51.49999999999921,0.304895,-62.6564,1.0611999999999995
51.99999999999918,0.30894999999999995,-62.33200000000001,0.32439999999999003
52.499999999999154,0.304585,-62.681200000000004,-0.3491999999999962
52.999999999999126,0.30792,-62.41440000000001,0.2667999999999964
53.4999999999991,0.29886,-63.1392,-0.7247999999999948
53.99999999999907,0.27415500000000004,-65.1156,-1.9763999999999982
54.49999999999904,0.287605,-64.03960000000001,1.0759999999999934
54.99999999999901,0.28379000000000004,-64.3448,-0.30519999999999925
55.499999999998984,0.2769400000000001,-64.8928,-0.5479999999999876
55.999999999998956,0.26514000000000004,-65.8368,-0.9440000000000026
56.49999999999893,0.27351000000000003,-65.1672,0.6696000000000026
56.9999999999989,0.24489999999999998,-67.456,-2.288800000000009
57.49999999999887,0.27355999999999997,-65.1632,2.2927999999999997
57.99999999999884,0.255995,-66.5684,-1.4051999999999936
58.49999999999881,0.268565,-65.56280000000001,1.005599999999987
58.999999999998785,0.28746499999999997,-64.05080000000001,1.5120000000000005
59.49999999999876,0.28980000000000006,-63.864,0.1868000000000123
59.99999999999873,0.26980499999999996,-65.4636,-1.5996000000000024
60.4999999999987,0.306055,-62.56360000000001,2.8999999999999915
60.99999999999867,0.274655,-65.07560000000001,-2.5120000000000005
61.49999999999864,0.283285,-64.3852,0.690400000000011
61.999999999998614,0.30296500000000004,-62.8108,1.5743999999999971
62.499999999998586,0.288,-64.008,-1.1971999999999952
62.99999999999856,0.29882,-63.1424,0.8655999999999935
63.49999999999853,0.27798,-64.8096,-1.6672000000000011
63.9999999999985,0.29581,-63.3832,1.426400000000001
64.49999999999848,0.30326999999999993,-62.78640000000001,0.5967999999999947
64.99999999999845,0.282155,-64.4756,-1.6891999999999925
65.49999999999842,0.2547149999999999,-66.67080000000001,-2.195200000000014
65.9999999999984,0.28424499999999997,-64.3084,2.362400000000008
66.49999999999837,0.26432500000000003,-65.902,-1.593599999999995
66.99999999999834,0.260695,-66.1924,-0.2904000000000053
67.49999999999831,0.279875,-64.658,1.534400000000005
67.99999999999828,0.24938500000000002,-67.0972,-2.4391999999999996
68.49999999999825,0.25585500000000005,-66.5796,0.5176000000000016
68.99999999999822,0.227175,-68.874,-2.294399999999996
69.4999999999982,0.24219999999999997,-67.672,1.2019999999999982
69.99999999999817,0.20125500000000002,-70.94760000000001,-3.2756000000000114
70.49999999999814,0.25675499999999996,-66.50760000000001,4.439999999999998
70.99999999999811,0.20138000000000003,-70.9376,-4.429999999999993
71.49999999999808,0.15007,-75.0424,-4.104799999999997
71.99999999999805,0.13212500000000002,-76.478,-1.4355999999999938
72.49999999999802,0.12314499999999999,-77.19640000000001,-0.7184000000000168
72.999999999998,0.13961,-75.8792,1.317200000000014
73.49999999999797,0.141105,-75.75959999999999,0.11960000000000548
73.99999999999794,0.141,-75.768,-0.008400000000008845
74.49999999999791,0.1516,-74.92,0.847999999999999
74.99999999999788,0.18349,-72.36880000000001,2.5511999999999944
75.49999999999785,0.19040999999999997,-71.8152,0.553600000000003
75.99999999999783,0.16694499999999998,-73.6924,-1.877200000000002
76.4999999999978,0.19629000000000002,-71.34479999999999,2.347600000000014
76.99999999999777,0.18984,-71.8608,-0.5160000000000053
77.49999999999774,0.153675,-74.754,-2.8932000000000073
77.99999999999771,0.17279,-73.2248,1.529200000000003
78.49999999999768,0.176125,-72.958,0.2668000000000035
78.99999999999766,0.134735,-76.2692,-3.3111999999999995
79.49999999999763,0.153495,-74.7684,1.5007999999999981
79.9999999999976,0.141075,-75.762,-0.9936000000000007
80.49999999999757,0.190255,-71.82759999999999,3.9344000000000108
80.99999999999754,0.21254500000000004,-70.0444,1.7831999999999937
81.49999999999751,0.19063000000000002,-71.79759999999999,-1.7531999999999925
81.99999999999748,0.155115,-74.6388,-2.841200000000015
82.49999999999746,0.19006499999999998,-71.84280000000001,2.7959999999999923
82.99999999999743,0.21128,-70.1456,1.6972000000000094
83.4999999999974,0.25482000000000005,-66.66239999999999,3.4832000000000107
83.99999999999737,0.28168,-64.51360000000001,2.14879999999998
84.49999999999734,0.27811,-64.7992,-0.2855999999999881
84.99999999999731,0.275945,-64.97240000000001,-0.17320000000000846
85.49999999999729,0.23838999999999996,-67.9768,-3.0043999999999897
85.99999999999726,0.271885,-65.2972,2.6795999999999935
86.49999999999723,0.18566999999999997,-72.1944,-6.897199999999998
86.9999999999972,0.19858499999999998,-71.1612,1.033200000000008
87.49999999999717,0.14865,-75.156,-3.994800000000012
87.99999999999714,0.16192,-74.0944,1.0616000000000128
88.49999999999712,0.13907999999999998,-75.9216,-1.8272000000000048
88.99999999999709,0.11491,-77.85520000000001,-1.9336000000000126
89.49999999999706,0.11479999999999999,-77.864,-0.008799999999993702
89.99999999999703,0.136215,-76.1508,1.7132000000000005
90.499999999997,0.20540000000000003,-70.616,5.534800000000004
90.99999999999697,0.28439500000000006,-64.29639999999999,6.319600000000008
91.49999999999694,0.31671,-61.7112,2.5851999999999933
91.99999999999692,0.33394,-60.3328,1.3783999999999992
92.49999999999689,0.31234,-62.0608,-1.7280000000000015
92.99999999999686,0.26452,-65.88640000000001,-3.8256000000000085
93.49999999999683,0.175505,-73.0076,-7.1211999999999875
93.9999999999968,0.23690999999999995,-68.0952,4.912399999999991
94.49999999999677,0.26344,-65.9728,2.122399999999999
94.99999999999675,0.280355,-64.6196,1.353200000000001
95.49999999999672,0.27983,-64.66159999999999,-0.04199999999998738
95.99999999999669,0.30204,-62.884800000000006,1.7767999999999873
96.49999999999666,0.330795,-60.58440000000001,2.3003999999999962
96.99999999999663,0.33040499999999995,-60.61560000000001,-0.03119999999999834
97.4999999999966,0.33063,-60.59760000000001,0.018000000000000682
97.99999999999658,0.3310449999999999,-60.564400000000006,0.033200000000000784
98.49999999999655,0.33451000000000003,-60.2872,0.27720000000000766
98.99999999999652,0.34371999999999997,-59.5504,0.7367999999999952
99.49999999999649,0.35402500000000003,-58.726,0.8244000000000042
99.99999999999646,0.367565,-57.64280000000001,1.0831999999999908
100.49999999999643,0.36514,-57.836800000000004,-0.1939999999999955
100.9999999999964,0.35941,-58.2952,-0.4583999999999975
101.49999999999638,0.369285,-57.5052,0.7899999999999991
101.99999999999635,0.361915,-58.094800000000006,-0.5896000000000043
102.49999999999632,0.366475,-57.730000000000004,0.36480000000000246
102.99999999999629,0.35867000000000004,-58.3544,-0.6243999999999943
103.49999999999626,0.342385,-59.65720000000001,-1.302800000000012
103.99999999999623,0.341015,-59.766799999999996,-0.10959999999998615
104.4999999999962,0.330755,-60.5876,-0.8208000000000055
104.99999999999618,0.31441499999999994,-61.89480000000001,-1.3072000000000088
105.49999999999615,0.274865,-65.0588,-3.1639999999999944
105.99999999999612,0.36044,-58.2128,6.846000000000004
106.49999999999609,0.32106,-61.3632,-3.1503999999999976
106.99999999999606,0.296135,-63.3572,-1.9939999999999998
107.49999999999604,0.33055499999999993,-60.60360000000001,2.7535999999999916
107.999999999996,0.312805,-62.0236,-1.4199999999999946
108.49999999999598,0.31610499999999997,-61.759600000000006,0.2639999999999958
108.99999999999595,0.374,-57.128,4.631600000000006
109.49999999999592,0.3417,-59.712,-2.584000000000003
109.9999999999959,0.35250000000000004,-58.848,0.8640000000000043
110.49999999999586,0.36565000000000003,-57.796,1.0519999999999996
110.99999999999584,0.34091,-59.7752,-1.9791999999999987
111.49999999999581,0.325335,-61.02120000000001,-1.2460000000000093
111.99999999999578,0.324255,-61.107600000000005,-0.08639999999999759
112.49999999999575,0.3390749999999999,-59.92200000000001,1.1855999999999938
112.99999999999572,0.32958,-60.6816,-0.7595999999999918
113.4999999999957,0.28187,-64.49839999999999,-3.8167999999999864
113.99999999999567,0.22852000000000006,-68.76639999999999,-4.268000000000001
114.49999999999564,0.20354999999999998,-70.764,-1.9976000000000056
114.99999999999561,0.15838500000000003,-74.3772,-3.613200000000006
115.49999999999558,0.206405,-70.5356,3.8415999999999997
115.99999999999555,0.16572,-73.7904,-3.254800000000003
116.49999999999552,0.17185999999999998,-73.2992,0.4912000000000063
116.9999999999955,0.17314000000000002,-73.1968,0.10240000000000293
117.49999999999547,0.24815,-67.196,6.000799999999998
117.99999999999544,0.26659,-65.7208,1.475200000000001
118.49999999999541,0.26698999999999995,-65.6888,0.031999999999996476
118.99999999999538,0.27302000000000004,-65.2064,0.4823999999999984
119.49999999999535,0.28368000000000004,-64.3536,0.852800000000002
119.99999999999532,0.31133,-62.141600000000004,2.211999999999996
120.4999999999953,0.33099500000000004,-60.5684,1.573200000000007
120.99999999999527,0.33887,-59.9384,0.6299999999999955
121.49999999999524,0.354705,-58.6716,1.2668000000000035
121.99999999999521,0.33840000000000003,-59.976,-1.3044000000000011
122.49999999999518,0.34347500000000003,-59.57000000000001,0.4059999999999917
122.99999999999515,0.321095,-61.3604,-1.790399999999991
123.49999999999513,0.28249500000000005,-64.44839999999999,-3.087999999999994
123.9999999999951,0.248935,-67.1332,-2.68480000000001
124.49999999999507,0.22059499999999996,-69.4004,-2.2672000000000025
124.99999999999504,0.21475999999999998,-69.86720000000001,-0.4668000000000063
125.49999999999501,0.205725,-70.59,-0.7227999999999923
125.99999999999498,0.246725,-67.31,3.280000000000001
126.49999999999496,0.22497000000000003,-69.0504,-1.740399999999994
126.99999999999493,0.25868500000000005,-66.3532,2.697199999999995
127.4999999999949,0.25609000000000004,-66.5608,-0.20759999999999934
127.99999999999487,0.242365,-67.6588,-1.097999999999999
128.49999999999497,0.18907,-71.92240000000001,-4.263600000000011
128.99999999999508,0.238555,-67.9636,3.9588000000000108
129.4999999999952,0.21935500000000002,-69.4996,-1.5360000000000014
129.9999999999953,0.23034000000000004,-68.6208,0.8787999999999982
130.49999999999542,0.23895999999999998,-67.9312,0.6895999999999987
130.99999999999554,0.27352,-65.1664,2.764800000000008
131.49999999999565,0.291285,-63.745200000000004,1.4211999999999918
131.99999999999577,0.28942,-63.894400000000005,-0.14920000000000044
132.49999999999588,0.28438500000000005,-64.29719999999999,-0.40279999999998495
132.999999999996,0.268805,-65.5436,-1.2464000000000084
133.4999999999961,0.31689,-61.6968,3.8467999999999947
133.99999999999622,0.35130000000000006,-58.943999999999996,2.7528000000000077
134.49999999999633,0.3506000000000001,-59.0,-0.05600000000000449
134.99999999999645,0.379315,-56.702799999999996,2.2972000000000037
135.49999999999656,0.39171,-55.711200000000005,0.9915999999999912
135.99999999999667,0.366115,-57.75880000000001,-2.0476000000000028
136.4999999999968,0.332665,-60.4348,-2.675999999999995
136.9999999999969,0.319395,-61.4964,-1.0615999999999985
137.49999999999702,0.28148,-64.5296,-3.033200000000001
137.99999999999713,0.213565,-69.9628,-5.433199999999999
138.49999999999724,0.18447999999999998,-72.28960000000001,-2.3268000000000058
138.99999999999736,0.29891999999999996,-63.13440000000001,9.1552
139.49999999999747,0.32026000000000004,-61.427200000000006,1.7072000000000003
139.99999999999758,0.35567499999999996,-58.59400000000001,2.833199999999998
140.4999999999977,0.361885,-58.0972,0.49680000000000746
140.9999999999978,0.355035,-58.6452,-0.5480000000000018
141.49999999999793,0.34335499999999997,-59.579600000000006,-0.9344000000000037
141.99999999999804,0.35537,-58.61840000000001,0.9611999999999981
142.49999999999815,0.34541,-59.415200000000006,-0.7967999999999975
142.99999999999827,0.338465,-59.970800000000004,-0.5555999999999983
143.49999999999838,0.359605,-58.27960000000001,1.691199999999995
143.9999999999985,0.32987500000000003,-60.658,-2.378399999999992
144.4999999999986,0.33981,-59.863200000000006,0.7947999999999951
144.99999999999872,0.33382,-60.342400000000005,-0.47919999999999874
145.49999999999883,0.36913000000000007,-57.517599999999995,2.8248000000000104
145.99999999999895,0.36608999999999997,-57.7608,-0.24320000000000874
146.49999999999906,0.34487,-59.458400000000005,-1.6976000000000013
146.99999999999918,0.347615,-59.238800000000005,0.2195999999999998
147.4999999999993,0.348445,-59.1724,0.06640000000000157
147.9999999999994,0.35628000000000004,-58.5456,0.6268000000000029
148.49999999999952,0.31481000000000003,-61.8632,-3.3175999999999988
148.99999999999963,0.31654499999999997,-61.7244,0.13879999999999626
149.49999999999974,0.27382999999999996,-65.1416,-3.417199999999994
149.99999999999986,0.29653000000000007,-63.325599999999994,1.8160000000000025
150.49999999999997,0.264685,-65.8732,-2.5476000000000028
151.00000000000009,0.21373999999999999,-69.94879999999999,-4.075599999999994
151.5000000000002,0.14271,-75.6312,-5.682400000000015
152.0000000000003,0.189475,-71.89,3.7412000000000063
152.50000000000043,0.21614499999999998,-69.7564,2.1336000000000013
153.00000000000054,0.17399,-73.1288,-3.372399999999999
153.50000000000065,0.15382500000000002,-74.742,-1.6132000000000062
154.00000000000077,0.16102,-74.16640000000001,0.5755999999999943
154.50000000000088,0.22043500000000002,-69.4132,4.753200000000007
155.000000000001,0.27938,-64.69760000000001,4.715599999999995
155.5000000000011,0.28168999999999994,-64.5128,0.18480000000000985
156.00000000000122,0.269255,-65.5076,-0.9947999999999979
156.50000000000134,0.30657999999999996,-62.52160000000001,2.98599999999999
157.00000000000145,0.27066500000000004,-65.3948,-2.873199999999997
157.50000000000156,0.24690999999999996,-67.29520000000001,-1.9004000000000048
158.00000000000168,0.23007499999999997,-68.642,-1.3467999999999876
158.5000000000018,0.20831500000000003,-70.3828,-1.7408000000000072
159.0000000000019,0.21997999999999998,-69.4496,0.9331999999999994
159.50000000000202,0.25067,-66.9944,2.455200000000005
160.00000000000213,0.27961,-64.6792,2.3152000000000044
160.50000000000225,0.28583,-64.1816,0.4975999999999914
161.00000000000236,0.29741999999999996,-63.254400000000004,0.9271999999999991
161.50000000000247,0.301265,-62.9468,0.30760000000000076
162.0000000000026,0.23171500000000003,-68.5108,-5.564
162.5000000000027,0.293205,-63.59160000000001,4.9191999999999965
163.0000000000028,0.30755499999999997,-62.4436,1.1480000000000032
163.50000000000293,0.28143,-64.53359999999999,-2.089999999999989
164.00000000000304,0.26353499999999996,-65.96520000000001,-1.4316000000000173
164.50000000000315,0.229115,-68.7188,-2.7535999999999916
165.00000000000327,0.16551,-73.8072,-5.088399999999993
165.50000000000338,0.25234999999999996,-66.86,6.947199999999995
166.0000000000035,0.18324500000000002,-72.3884,-5.528400000000005
166.5000000000036,0.297255,-63.2676,9.120800000000003
167.00000000000372,0.32839999999999997,-60.776,2.4915999999999983
167.50000000000384,0.32831,-60.7832,-0.007199999999997431
168.00000000000395,0.29718999999999995,-63.272800000000004,-2.489600000000003
168.50000000000406,0.283165,-64.3948,-1.1219999999999999
169.00000000000418,0.29911499999999996,-63.1188,1.2760000000000034
169.5000000000043,0.28247,-64.4504,-1.3316000000000017
170.0000000000044,0.3201250000000001,-61.437999999999995,3.0124000000000066
170.50000000000452,0.34793,-59.2136,2.2243999999999957
171.00000000000463,0.34428000000000003,-59.5056,-0.2920000000000016
171.50000000000475,0.36584000000000005,-57.7808,1.7248000000000019
172.00000000000486,0.36850499999999997,-57.567600000000006,0.2131999999999934
172.50000000000497,0.3520150000000001,-58.886799999999994,-1.319199999999988
173.0000000000051,0.33649,-60.128800000000005,-1.2420000000000115
173.5000000000052,0.338465,-59.970800000000004,0.15800000000000125
174.00000000000531,0.350945,-58.9724,0.9984000000000037
174.50000000000543,0.369205,-57.5116,1.460799999999999
175.00000000000554,0.33729000000000003,-60.0648,-2.553199999999997
175.50000000000566,0.29919,-63.1128,-3.048000000000002
176.00000000000577,0.27782999999999997,-64.8216,-1.7088000000000036
176.50000000000588,0.20814,-70.3968,-5.575199999999995
177.000000000006,0.236885,-68.0972,2.299599999999998
177.5000000000061,0.2855150000000001,-64.2068,3.8903999999999996
178.00000000000622,0.29297999999999996,-63.6096,0.5972000000000008
178.50000000000634,0.239335,-67.9012,-4.2916000000000025
179.00000000000645,0.305615,-62.598800000000004,5.302399999999999
179.50000000000657,0.246395,-67.3364,-4.737599999999993
180.00000000000668,0.28426500000000005,-64.3068,3.029600000000002
180.5000000000068,0.32986,-60.6592,3.647599999999997
181.0000000000069,0.340425,-59.81400000000001,0.8451999999999913
181.50000000000702,0.366885,-57.6972,2.116800000000005
182.00000000000713,0.36204000000000003,-58.0848,-0.38759999999999906
182.50000000000725,0.34345,-59.572,-1.4872000000000014
183.00000000000736,0.36219,-58.0728,1.4992000000000019
183.50000000000747,0.24423,-67.5096,-9.436800000000005
184.0000000000076,0.195375,-71.418,-3.9084000000000003
184.5000000000077,0.29652500000000004,-63.326,8.092000000000006
185.00000000000782,0.32422000000000006,-61.1104,2.215600000000002
185.50000000000793,0.37279999999999996,-57.224000000000004,3.8863999999999947
186.00000000000804,0.347855,-59.2196,-1.995599999999996
186.50000000000816,0.31621999999999995,-61.750400000000006,-2.5308000000000064
187.00000000000827,0.30694499999999997,-62.4924,-0.7419999999999973
187.50000000000838,0.32851499999999995,-60.76680000000001,1.725599999999993
188.0000000000085,0.285185,-64.2332,-3.466399999999986
188.5000000000086,0.29479999999999995,-63.464000000000006,0.7691999999999908
189.00000000000873,0.29000499999999996,-63.84760000000001,-0.3836000000000013
189.50000000000884,0.29696,-63.2912,0.5564000000000036
190.00000000000895,0.298575,-63.162,0.12920000000000442
190.50000000000907,0.267265,-65.66680000000001,-2.50480000000001
191.00000000000918,0.23790499999999998,-68.01559999999999,-2.348799999999983
191.5000000000093,0.32398499999999997,-61.129200000000004,6.886399999999988
192.0000000000094,0.31716000000000005,-61.6752,-0.5459999999999923
192.50000000000952,0.235485,-68.20920000000001,-6.534000000000013
193.00000000000963,0.274735,-65.06920000000001,3.1400000000000006
193.50000000000975,0.32317,-61.19440000000001,3.8748000000000005
194.00000000000986,0.37117999999999995,-57.35360000000001,3.8408000000000015
194.50000000000998,0.378675,-56.754000000000005,0.5996000000000024
195.0000000000101,0.38061,-56.5992,0.1548000000000016
195.5000000000102,0.377145,-56.8764,-0.27719999999999345
196.00000000001032,0.32221500000000003,-61.2708,-4.3944000000000045
196.50000000001043,0.29270499999999994,-63.631600000000006,-2.3608000000000047
197.00000000001054,0.357975,-58.41000000000001,5.221599999999995
197.50000000001066,0.355355,-58.619600000000005,-0.20959999999999468
198.00000000001077,0.32524,-61.028800000000004,-2.4091999999999985
198.50000000001089,0.19588,-71.3776,-10.348799999999997
199.000000000011,0.16250000000000003,-74.04799999999999,-2.6703999999999866
199.5000000000111,0.305635,-62.5972,11.450799999999987
200.00000000001123,0.35283999999999993,-58.820800000000006,3.7763999999999953
200.50000000001134,0.35747500000000004,-58.45,0.3708000000000027
201.00000000001145,0.382355,-56.4596,1.990400000000001
201.50000000001157,0.38813999999999993,-55.99680000000001,0.4627999999999943
202.00000000001168,0.35114,-58.9568,-2.9599999999999937
202.5000000000118,0.33425499999999997,-60.30760000000001,-1.3508000000000067
203.0000000000119,0.33579499999999995,-60.184400000000004,0.1232000000000042
203.50000000001202,0.34148,-59.729600000000005,0.45479999999999876
204.00000000001214,0.34759500000000004,-59.240399999999994,0.48920000000001096
204.50000000001225,0.3382200000000001,-59.990399999999994,-0.75
205.00000000001236,0.26764499999999997,-65.63640000000001,-5.646000000000015
205.50000000001248,0.29283499999999996,-63.62120000000001,2.0152
206.0000000000126,0.327495,-60.848400000000005,2.7728000000000037
206.5000000000127,0.34517500000000007,-59.434000000000005,1.4144000000000005
207.00000000001282,0.31483000000000005,-61.861599999999996,-2.427599999999991
207.50000000001293,0.21468499999999996,-69.8732,-8.011600000000001
208.00000000001305,0.30971499999999996,-62.27080000000001,7.602399999999989
208.50000000001316,0.36746999999999996,-57.650400000000005,4.620400000000004
209.00000000001327,0.3853750000000001,-56.218,1.4324000000000012
209.5000000000134,0.38597000000000004,-56.1704,0.04760000000000275
210.0000000000135,0.383905,-56.33560000000001,-0.1652000000000058
210.5000000000136,0.40073499999999995,-54.989200000000004,1.3464000000000027
211.00000000001373,0.40064,-54.9968,-0.0075999999999964984
211.50000000001384,0.39608,-55.3616,-0.36480000000000246
212.00000000001396,0.37604999999999994,-56.964000000000006,-1.602400000000003
212.50000000001407,0.330475,-60.61,-3.6459999999999937
213.00000000001418,0.243405,-67.57560000000001,-6.965600000000009
213.5000000000143,0.28104999999999997,-64.564,3.0116000000000156
214.0000000000144,0.24323499999999995,-67.5892,-3.0252000000000123
214.50000000001452,0.27136499999999997,-65.3388,2.250399999999999
215.00000000001464,0.31514,-61.836800000000004,3.5020000000000024
215.50000000001475,0.30001500000000003,-63.0468,-1.2099999999999937
216.00000000001486,0.362415,-58.05480000000001,4.99199999999999
216.50000000001498,0.37044,-57.412800000000004,0.642000000000003
217.0000000000151,0.36093,-58.17360000000001,-0.7608000000000033
217.5000000000152,0.381955,-56.4916,1.6820000000000093
218.00000000001532,0.37138499999999997,-57.3372,-0.8456000000000046
218.50000000001543,0.311605,-62.1196,-4.7823999999999955
219.00000000001555,0.262235,-66.0692,-3.9495999999999967
219.50000000001566,0.261065,-66.1628,-0.09360000000000923
220.00000000001577,0.26858,-65.5616,0.6012000000000057
220.5000000000159,0.25951,-66.2872,-0.7256
221.000000000016,0.37322,-57.190400000000004,9.096799999999995
221.50000000001612,0.30497,-62.650400000000005,-5.460000000000001
222.00000000001623,0.27969,-64.6728,-2.0223999999999904
222.50000000001634,0.23318,-68.3936,-3.720800000000011
223.00000000001646,0.2769499999999999,-64.89200000000001,3.5015999999999963
223.50000000001657,0.24852000000000002,-67.1664,-2.2743999999999858
224.00000000001668,0.21017999999999998,-70.2336,-3.0671999999999997
224.5000000000168,0.22204000000000002,-69.2848,0.9487999999999914
225.0000000000169,0.21443000000000004,-69.8936,-0.6088000000000022
225.50000000001702,0.24625000000000002,-67.348,2.5456000000000074
226.00000000001714,0.283215,-64.3908,2.9572000000000003
226.50000000001725,0.31797000000000003,-61.6104,2.7804
227.00000000001737,0.38188,-56.497600000000006,5.112799999999993
227.50000000001748,0.41721,-53.6712,2.8264000000000067
228.0000000000176,0.38944,-55.8928,-2.2216000000000022
228.5000000000177,0.34591500000000003,-59.37480000000001,-3.4820000000000064
229.00000000001782,0.32258,-61.241600000000005,-1.8667999999999978
229.50000000001793,0.34067499999999995,-59.794000000000004,1.4476000000000013
230.00000000001805,0.3814449999999999,-56.53240000000001,3.2615999999999943
230.50000000001816,0.3904,-55.815999999999995,0.7164000000000144
231.00000000001828,0.39688500000000004,-55.2972,0.5187999999999988
231.5000000000184,0.35336999999999996,-58.778400000000005,-3.4812000000000083
232.0000000000185,0.332395,-60.4564,-1.6779999999999973
232.50000000001862,0.33253499999999997,-60.4452,0.01120000000000232
233.00000000001873,0.38446499999999995,-56.290800000000004,4.154399999999995
233.50000000001884,0.4261049999999999,-52.95960000000001,3.3311999999999955
234.00000000001896,0.40704499999999993,-54.484400000000015,-1.5248000000000062
234.50000000001907,0.390265,-55.826800000000006,-1.3423999999999907
235.00000000001918,0.35321,-58.7912,-2.9643999999999977
235.5000000000193,0.35148999999999997,-58.9288,-0.13759999999999906
236.0000000000194,0.32050000000000006,-61.408,-2.4791999999999987
236.50000000001953,0.17999,-72.64880000000001,-11.240800000000007
237.00000000001964,0.278735,-64.7492,7.899600000000007
237.50000000001975,0.302485,-62.8492,1.8999999999999986
238.00000000001987,0.19465499999999997,-71.4756,-8.626399999999997
238.50000000001998,0.23404000000000003,-68.3248,3.150800000000004
239.0000000000201,0.33992500000000003,-59.854,8.470799999999997
239.5000000000202,0.30649499999999996,-62.528400000000005,-2.6744000000000057
240.00000000002032,0.29707,-63.28240000000001,-0.7540000000000049
240.50000000002044,0.28491,-64.2552,-0.9727999999999923
241.00000000002055,0.36333499999999996,-57.98120000000001,6.273999999999994
241.50000000002066,0.41527000000000003,-53.8264,4.154800000000009
242.00000000002078,0.4374349999999999,-52.05320000000001,1.7731999999999886
242.5000000000209,0.424745,-53.06840000000001,-1.0152
243.000000000021,0.41130000000000005,-54.144000000000005,-1.0755999999999943
243.50000000002112,0.356365,-58.5388,-4.3947999999999965
244.00000000002123,0.31084000000000006,-62.180800000000005,-3.642000000000003
244.50000000002134,0.27625,-64.94800000000001,-2.7672000000000025
245.00000000002146,0.29694499999999996,-63.2924,1.6556000000000068
245.50000000002157,0.26884,-65.5408,-2.2484000000000037
246.00000000002169,0.31557,-61.8024,3.7384000000000057
246.5000000000218,0.357455,-58.4516,3.3507999999999996
247.0000000000219,0.35024500000000003,-59.0284,-0.5767999999999986
247.50000000002203,0.37638999999999995,-56.936800000000005,2.0915999999999926
248.00000000002214,0.375035,-57.0452,-0.10839999999999606
248.50000000002225,0.33529000000000003,-60.224799999999995,-3.1795999999999935
249.00000000002237,0.311715,-62.110800000000005,-1.88600000000001
249.50000000002248,0.38071,-56.5912,5.519600000000004
250.0000000000226,0.37943999999999994,-56.692800000000005,-0.1016000000000048
250.5000000000227,0.34699,-59.2888,-2.5959999999999965
251.00000000002282,0.37551500000000004,-57.0068,2.2820000000000036
251.50000000002294,0.395085,-55.4412,1.5655999999999963
252.00000000002305,0.364625,-57.87800000000001,-2.436800000000005
252.50000000002316,0.34708,-59.2816,-1.4035999999999902
253.00000000002328,0.34396,-59.5312,-0.24960000000000093
253.5000000000234,0.346645,-59.3164,0.21479999999999677
254.0000000000235,0.38946000000000003,-55.8912,3.425200000000004
254.50000000002362,0.34221999999999997,-59.67040000000001,-3.77920000000001
255.00000000002373,0.37887000000000004,-56.7384,2.9320000000000093
255.50000000002385,0.396705,-55.311600000000006,1.426799999999993
256.00000000002393,0.40439500000000006,-54.6964,0.6152000000000086
256.50000000002404,0.403935,-54.73320000000001,-0.03680000000001371
257.00000000002416,0.3843150000000001,-56.3028,-1.569599999999987
257.5000000000243,0.394455,-55.491600000000005,0.8111999999999924
258.0000000000244,0.41197,-54.09040000000001,1.4011999999999958
258.5000000000245,0.41994499999999996,-53.452400000000004,0.6380000000000052
259.0000000000246,0.396675,-55.314,-1.8615999999999957
259.5000000000247,0.37313,-57.19760000000001,-1.8836000000000084
260.00000000002484,0.328305,-60.7836,-3.5859999999999914
260.50000000002495,0.32022,-61.430400000000006,-0.646800000000006
261.00000000002507,0.380895,-56.57640000000001,4.853999999999999
261.5000000000252,0.4087949999999999,-54.34440000000001,2.2319999999999993
262.0000000000253,0.41411499999999996,-53.918800000000005,0.42560000000000286
262.5000000000254,0.40708,-54.4816,-0.5627999999999957
263.0000000000255,0.39236,-55.6592,-1.1775999999999982
263.50000000002564,0.36319500000000005,-57.992399999999996,-2.333199999999998
264.00000000002575,0.30376,-62.7472,-4.754800000000003
264.50000000002586,0.29078499999999996,-63.7852,-1.0380000000000038
265.000000000026,0.350065,-59.0428,4.7424000000000035
265.5000000000261,0.36072000000000004,-58.1904,0.8524000000000029
266.0000000000262,0.30181500000000006,-62.9028,-4.712400000000002
266.5000000000263,0.27637500000000004,-64.938,-2.0352000000000032
267.00000000002643,0.27037,-65.4184,-0.48040000000000305
267.50000000002655,0.33584,-60.1808,5.237600000000008
268.00000000002666,0.30284500000000003,-62.8204,-2.6396000000000015
268.5000000000268,0.32086500000000007,-61.3788,1.441600000000001
269.0000000000269,0.40124000000000004,-54.9488,6.43
269.500000000027,0.38994,-55.85280000000001,-0.9040000000000106
270.0000000000271,0.41534000000000004,-53.8208,2.0320000000000107
270.5000000000272,0.418055,-53.6036,0.21719999999999828
271.00000000002734,0.39017999999999997,-55.833600000000004,-2.230000000000004
271.50000000002746,0.31155499999999997,-62.1236,-6.289999999999999
272.00000000002757,0.32455500000000004,-61.0836,1.0400000000000063
272.5000000000277,0.33276,-60.427200000000006,0.6563999999999908
273.0000000000278,0.404525,-54.686,5.741200000000006
273.5000000000279,0.37431000000000003,-57.1032,-2.417200000000001
274.000000000028,0.24664000000000003,-67.3168,-10.2136
274.50000000002814,0.22001000000000004,-69.4472,-2.1303999999999945
275.00000000002825,0.36682000000000003,-57.7024,11.744799999999998
275.50000000002836,0.421785,-53.3052,4.397199999999998
276.0000000000285,0.41474500000000003,-53.8684,-0.5632000000000019
276.5000000000286,0.41093,-54.1736,-0.30519999999999925
277.0000000000287,0.44228000000000006,-51.665600000000005,2.5079999999999956
277.5000000000288,0.42380499999999993,-53.143600000000006,-1.4780000000000015
278.00000000002893,0.42399999999999993,-53.12800000000001,0.01559999999999917
278.50000000002905,0.435065,-52.2428,0.8852000000000046
279.00000000002916,0.457215,-50.47080000000001,1.7719999999999914
279.5000000000293,0.45030000000000003,-51.024,-0.5531999999999897
280.0000000000294,0.474385,-49.0972,1.9268
280.5000000000295,0.400275,-55.02600000000001,-5.92880000000001
281.0000000000296,0.382735,-56.4292,-1.4031999999999911
281.50000000002973,0.40517000000000003,-54.6344,1.7948000000000022
282.00000000002984,0.430755,-52.5876,2.0467999999999975
282.50000000002996,0.29917499999999997,-63.114000000000004,-10.526400000000002
283.00000000003007,0.27331,-65.1832,-2.069199999999995
283.5000000000302,0.28542,-64.2144,0.9688000000000017
284.0000000000303,0.261285,-66.1452,-1.930800000000005
284.5000000000304,0.34553,-59.4056,6.739600000000003
285.0000000000305,0.32274,-61.2288,-1.8232
285.50000000003064,0.315095,-61.8404,-0.6116000000000028
286.00000000003075,0.38360500000000003,-56.35960000000001,5.480799999999995
286.50000000003087,0.40580499999999997,-54.583600000000004,1.7760000000000034
287.000000000031,0.29135,-63.74,-9.156399999999998
287.5000000000311,0.338805,-59.9436,3.7963999999999984
288.0000000000312,0.36946500000000004,-57.4908,2.4528000000000034
288.5000000000313,0.37431,-57.10320000000001,0.38759999999999195
289.00000000003143,0.35263,-58.8376,-1.7343999999999937
289.50000000003155,0.32967,-60.6744,-1.8367999999999967
290.00000000003166,0.25379,-66.7448,-6.070399999999999
290.5000000000318,0.32998500000000003,-60.64920000000001,6.09559999999999
291.0000000000319,0.304335,-62.7012,-2.0519999999999925
291.500000000032,0.28234,-64.46079999999999,-1.7595999999999918
292.0000000000321,0.2867,-64.11200000000001,0.3487999999999829
292.50000000003223,0.31286,-62.0192,2.092800000000011
293.00000000003234,0.375235,-57.0292,4.989999999999995
293.50000000003246,0.416205,-53.75160000000001,3.2775999999999925
294.00000000003257,0.32874,-60.7488,-6.997199999999992
294.5000000000327,0.27437,-65.0984,-4.349599999999995
295.0000000000328,0.35418000000000005,-58.7136,6.3847999999999985
295.5000000000329,0.34289,-59.61680000000001,-0.9032000000000124
296.000000000033,0.36211499999999996,-58.07880000000001,1.5380000000000038
296.50000000003314,0.388535,-55.965199999999996,2.1136000000000124
297.00000000003325,0.41766999999999993,-53.63440000000001,2.3307999999999893
297.50000000003337,0.4519100000000001,-50.8952,2.739200000000004
298.0000000000335,0.36854,-57.564800000000005,-6.669600000000003
298.5000000000336,0.37109499999999995,-57.360400000000006,0.2043999999999997
299.0000000000337,0.35445999999999994,-58.6912,-1.3307999999999964
299.5000000000338,0.4251849999999999,-53.03320000000001,5.657999999999994
300.00000000003394,0.41429499999999997,-53.9044,-0.8711999999999946
300.50000000003405,0.279315,-64.7028,-10.798399999999994
301.00000000003416,0.220165,-69.43480000000001,-4.7320000000000135
301.5000000000343,0.33886499999999997,-59.93880000000001,9.496000000000002
302.0000000000344,0.25135500000000005,-66.9396,-7.000799999999991
302.5000000000345,0.353235,-58.78920000000001,8.15039999999999
303.0000000000346,0.33721499999999993,-60.070800000000006,-1.2815999999999974
303.50000000003473,0.42842499999999994,-52.77400000000001,7.2967999999999975
304.00000000003485,0.42182,-53.302400000000006,-0.5283999999999978
304.50000000003496,0.45716,-50.4752,2.827200000000005
305.0000000000351,0.42462,-53.0784,-2.603200000000001
305.5000000000352,0.415865,-53.77880000000001,-0.700400000000009
306.0000000000353,0.45941,-50.2952,3.48360000000001
306.5000000000354,0.40639000000000003,-54.5368,-4.241599999999998
307.0000000000355,0.32851,-60.767199999999995,-6.230399999999996
307.50000000003564,0.35644,-58.5328,2.2343999999999937
308.00000000003575,0.33630000000000004,-60.144,-1.6111999999999966
308.50000000003587,0.36651500000000004,-57.7268,2.417200000000001
309.000000000036,0.27814,-64.79679999999999,-7.069999999999993
309.5000000000361,0.36407999999999996,-57.921600000000005,6.875199999999985
310.0000000000362,0.30244,-62.8528,-4.931199999999997
310.5000000000363,0.32397500000000007,-61.129999999999995,1.7228000000000065
311.00000000003644,0.3847900000000001,-56.264799999999994,4.8652000000000015
311.50000000003655,0.38073999999999997,-56.588800000000006,-0.3240000000000123
312.00000000003666,0.43726000000000004,-52.06720000000001,4.521599999999999
312.5000000000368,0.428165,-52.7948,-0.7275999999999954
313.0000000000369,0.32512500000000005,-61.038,-8.243199999999995
313.500000000037,0.39075499999999996,-55.787600000000005,5.250399999999992
314.0000000000371,0.44037499999999996,-51.818000000000005,3.9696
314.50000000003723,0.45695500000000006,-50.491600000000005,1.3263999999999996
315.00000000003735,0.35978,-58.265600000000006,-7.774000000000001
315.50000000003746,0.32907500000000006,-60.722,-2.456399999999995
316.0000000000376,0.377895,-56.8164,3.9055999999999997
316.5000000000377,0.388375,-55.978,0.8384
317.0000000000378,0.307465,-62.4508,-6.472799999999999
317.5000000000379,0.335055,-60.2436,2.2072000000000003
318.000000000038,0.3963,-55.344,4.8995999999999995
318.50000000003814,0.33431500000000003,-60.3028,-4.9587999999999965
319.00000000003826,0.42033999999999994,-53.42080000000001,6.881999999999991
319.50000000003837,0.40329,-54.78480000000001,-1.3640000000000043
320.0000000000385,0.342105,-59.6796,-4.894799999999989
320.5000000000386,0.40345,-54.772000000000006,4.907599999999995
321.0000000000387,0.297475,-63.25000000000001,-8.478000000000002
321.5000000000388,0.27547,-65.0104,-1.760399999999997
322.00000000003894,0.34558,-59.4016,5.608800000000002
322.50000000003905,0.306,-62.568,-3.166399999999996
323.00000000003917,0.356375,-58.538000000000004,4.029999999999994
323.5000000000393,0.409,-54.328,4.210000000000001
324.0000000000394,0.36743000000000003,-57.6536,-3.3255999999999943
324.5000000000395,0.43321999999999994,-52.39040000000001,5.2631999999999906
325.0000000000396,0.463645,-49.9564,2.4340000000000046
325.50000000003973,0.45552000000000004,-50.6064,-0.6499999999999986
326.00000000003985,0.418525,-53.566,-2.959600000000002
326.50000000003996,0.393545,-55.5644,-1.9983999999999966
327.0000000000401,0.41366,-53.9552,1.6092000000000013
327.5000000000402,0.343555,-59.5636,-5.608400000000003
328.0000000000403,0.35919,-58.3128,1.2507999999999981
328.5000000000404,0.43532000000000004,-52.2224,6.0904000000000025
329.00000000004053,0.40893500000000005,-54.3332,-2.1107999999999976
329.50000000004064,0.33720999999999995,-60.071200000000005,-5.738000000000007
330.00000000004076,0.4045249999999999,-54.68600000000001,5.3851999999999975
330.50000000004087,0.42705000000000004,-52.884,1.8020000000000067
331.000000000041,0.39215500000000003,-55.6756,-2.7916000000000025
331.5000000000411,0.28126,-64.54719999999999,-8.871599999999987
332.0000000000412,0.28037000000000006,-64.6184,-0.07120000000000459
332.5000000000413,0.40247,-54.8504,9.767999999999994
333.00000000004144,0.38539,-56.2168,-1.3663999999999987
333.50000000004155,0.40713499999999997,-54.4772,1.7395999999999958
334.00000000004167,0.39157000000000003,-55.72240000000001,-1.245200000000004
334.5000000000418,0.4312950000000001,-52.544399999999996,3.1780000000000115
335.0000000000419,0.41223,-54.0696,-1.5252000000000052
335.500000000042,0.343825,-59.542,-5.4724
336.0000000000421,0.46659000000000006,-49.7208,9.821200000000005
336.50000000004223,0.465665,-49.7948,-0.07400000000000517
337.00000000004235,0.4208299999999999,-53.381600000000006,-3.5868000000000038
337.50000000004246,0.46470500000000003,-49.8716,3.510000000000005
338.0000000000426,0.47698999999999997,-48.8888,0.9827999999999975
338.5000000000427,0.446305,-51.34360000000001,-2.454800000000006
339.0000000000428,0.31489,-61.8568,-10.51319999999999
339.5000000000429,0.390385,-55.81720000000001,6.039599999999993
340.00000000004303,0.44396,-51.5312,4.2860000000000085
340.50000000004314,0.41173000000000004,-54.1096,-2.578400000000002
341.00000000004326,0.4193700000000001,-53.498400000000004,0.6111999999999966
341.50000000004337,0.388605,-55.9596,-2.461199999999998
342.0000000000435,0.427285,-52.8652,3.0944000000000003
342.5000000000436,0.307385,-62.4572,-9.591999999999999
343.0000000000437,0.39464,-55.476800000000004,6.980399999999996
343.5000000000438,0.41353,-53.96560000000001,1.5111999999999952
344.00000000004394,0.38828499999999994,-55.985200000000006,-2.019599999999997
344.50000000004405,0.39253,-55.6456,0.33960000000000434
345.00000000004417,0.38214,-56.47680000000001,-0.8312000000000097
345.5000000000443,0.440245,-51.8284,4.648400000000009
346.0000000000444,0.430075,-52.642,-0.813600000000001
346.5000000000445,0.39524,-55.4288,-2.7867999999999995
347.0000000000446,0.36933999999999995,-57.500800000000005,-2.0720000000000027
347.50000000004474,0.437445,-52.052400000000006,5.4483999999999995
348.00000000004485,0.292,-63.688,-11.635599999999997
348.50000000004496,0.360025,-58.246,5.442
349.0000000000451,0.295225,-63.43,-5.1839999999999975
349.5000000000452,0.402505,-54.8476,8.5824
350.0000000000453,0.441375,-51.738,3.1096000000000004
350.5000000000454,0.36456,-57.8832,-6.145200000000003
351.00000000004553,0.36119999999999997,-58.15200000000001,-0.2688000000000059
351.50000000004565,0.38855500000000004,-55.96360000000001,2.1884000000000015
352.00000000004576,0.422715,-53.23080000000001,2.7327999999999975
352.5000000000459,0.391335,-55.741200000000006,-2.510399999999997
353.000000000046,0.41455000000000003,-53.88400000000001,1.8571999999999989
353.5000000000461,0.370465,-57.4108,-3.5267999999999944
354.0000000000462,0.36375,-57.948,-0.5371999999999986
354.5000000000463,0.21010999999999996,-70.2392,-12.291199999999996
355.00000000004644,0.279285,-64.7052,5.533999999999992
355.50000000004655,0.292545,-63.6444,1.0608000000000075
356.00000000004667,0.401715,-54.9108,8.733599999999996
356.5000000000468,0.38943000000000005,-55.8936,-0.9827999999999975
357.0000000000469,0.32537000000000005,-61.0184,-5.1248000000000005
357.500000000047,0.36411,-57.91920000000001,3.099199999999989
358.0000000000471,0.375495,-57.0084,0.9108000000000089
358.50000000004724,0.44079500000000005,-51.7844,5.224000000000004
359.00000000004735,0.407185,-54.4732,-2.6888000000000005
359.50000000004746,0.46243500000000004,-50.0532,4.420000000000002
360.0000000000476,0.487615,-48.0388,2.014399999999995
360.5000000000477,0.42013000000000006,-53.437599999999996,-5.398799999999994
361.0000000000478,0.38048,-56.60960000000001,-3.1720000000000113
361.5000000000479,0.4297000000000001,-52.672,3.9376000000000104
362.00000000004803,0.43400000000000005,-52.327999999999996,0.3440000000000012
362.50000000004815,0.46016,-50.2352,2.092799999999997
363.00000000004826,0.43915499999999996,-51.915600000000005,-1.680400000000006
363.5000000000484,0.43648999999999993,-52.128800000000005,-0.2132000000000005
364.0000000000485,0.45471500000000004,-50.67080000000001,1.4579999999999984
364.5000000000486,0.4258400000000001,-52.980799999999995,-2.309999999999988
365.0000000000487,0.44695,-51.29200000000001,1.6887999999999863
365.50000000004883,0.4579350000000001,-50.413199999999996,0.8788000000000125
366.00000000004894,0.42213500000000004,-53.2772,-2.8640000000000043
366.50000000004906,0.4544750000000001,-50.69,2.587200000000003
367.00000000004917,0.40308,-54.8016,-4.111600000000003
367.5000000000493,0.42374999999999996,-53.148,1.6535999999999973
368.0000000000494,0.44849999999999995,-51.16800000000001,1.9799999999999898
368.5000000000495,0.41528,-53.8256,-2.657599999999988
369.0000000000496,0.3625650000000001,-58.0428,-4.217199999999998
369.50000000004974,0.4269299999999999,-52.893600000000006,5.149199999999993
370.00000000004985,0.396605,-55.3196,-2.425999999999995
370.50000000004997,0.395105,-55.4396,-0.11999999999999744
371.0000000000501,0.34085,-59.78,-4.3404000000000025
371.5000000000502,0.3872300000000001,-56.069599999999994,3.710400000000007
372.0000000000503,0.39563500000000007,-55.3972,0.6723999999999961
372.5000000000504,0.413905,-53.93560000000001,1.46159999999999
373.00000000005053,0.36265000000000003,-58.036,-4.100399999999993
373.50000000005065,0.355755,-58.5876,-0.5516000000000005
374.00000000005076,0.395365,-55.418800000000005,3.1687999999999974
374.5000000000509,0.447295,-51.2644,4.1544000000000025
375.000000000051,0.46031000000000005,-50.223200000000006,1.0411999999999964
375.5000000000511,0.42424,-53.10880000000001,-2.8856000000000037
376.0000000000512,0.46267499999999995,-50.034000000000006,3.0748000000000033
376.50000000005133,0.449395,-51.0964,-1.0623999999999967
377.00000000005144,0.470365,-49.41880000000001,1.677599999999991
377.50000000005156,0.48820499999999994,-47.991600000000005,1.4272000000000062
378.00000000005167,0.456935,-50.4932,-2.5015999999999963
378.5000000000518,0.45489000000000007,-50.656800000000004,-0.1636000000000024
379.0000000000519,0.477615,-48.8388,1.818000000000005
379.500000000052,0.465055,-49.8436,-1.004800000000003
380.0000000000521,0.46659999999999996,-49.72000000000001,0.12359999999998905
380.50000000005224,0.499505,-47.0876,2.632400000000011
381.00000000005235,0.519415,-45.494800000000005,1.5927999999999969
381.50000000005247,0.52666,-44.9152,0.5796000000000063
382.0000000000526,0.5112099999999999,-46.15120000000001,-1.2360000000000113
382.5000000000527,0.520965,-45.3708,0.7804000000000073
383.0000000000528,0.50354,-46.7648,-1.3939999999999984
383.5000000000529,0.47776499999999994,-48.826800000000006,-2.0620000000000047
384.00000000005303,0.47692499999999993,-48.894000000000005,-0.0671999999999997
384.50000000005315,0.428115,-52.7988,-3.9047999999999945
385.00000000005326,0.4451549999999999,-51.43560000000001,1.363199999999992
385.5000000000534,0.42730500000000005,-52.8636,-1.4279999999999902
386.0000000000535,0.45499,-50.6488,2.2147999999999968
386.5000000000536,0.38366,-56.3552,-5.706400000000002
387.0000000000537,0.41257,-54.0424,2.312800000000003
387.50000000005383,0.37422500000000003,-57.11,-3.0675999999999988
388.00000000005394,0.30585,-62.580000000000005,-5.470000000000006
388.50000000005406,0.327735,-60.8292,1.7508000000000052
389.0000000000542,0.384675,-56.274,4.555199999999999
389.5000000000543,0.38085,-56.58,-0.3059999999999974
390.0000000000544,0.331385,-60.5372,-3.9572000000000003
390.5000000000545,0.36727499999999996,-57.666000000000004,2.8711999999999946
391.0000000000546,0.38732500000000003,-56.062,1.6040000000000063
391.50000000005474,0.397885,-55.2172,0.8447999999999993
392.00000000005485,0.43148,-52.5296,2.687599999999996
392.50000000005497,0.44094500000000003,-51.7724,0.7572000000000045
393.0000000000551,0.46212,-50.0784,1.6939999999999955
393.5000000000552,0.43979,-51.8648,-1.7864000000000004
394.0000000000553,0.41997,-53.45040000000001,-1.5856000000000066
394.5000000000554,0.4603999999999999,-50.21600000000001,3.234400000000001
395.00000000005554,0.47126499999999993,-49.34680000000001,0.8691999999999993
395.50000000005565,0.48934,-47.900800000000004,1.446000000000005
396.00000000005576,0.48629,-48.144800000000004,-0.24399999999999977
396.5000000000559,0.49626500000000007,-47.346799999999995,0.7980000000000089
397.000000000056,0.45919999999999994,-50.312000000000005,-2.96520000000001
397.5000000000561,0.4630049999999999,-50.00760000000001,0.304399999999994
398.0000000000562,0.48611000000000004,-48.1592,1.8484000000000123
398.50000000005633,0.5105000000000001,-46.208,1.9512
399.00000000005645,0.51878,-45.5456,0.6623999999999981
399.50000000005656,0.522715,-45.2308,0.3147999999999982
400.0000000000567,0.48439000000000004,-48.2968,-3.0659999999999954
400.5000000000568,0.48744000000000004,-48.0528,0.24399999999999977
401.0000000000569,0.5105299999999999,-46.20560000000001,1.8471999999999866
401.500000000057,0.5527,-42.83200000000001,3.3736000000000033
402.0000000000571,0.5448299999999999,-43.46160000000001,-0.6296000000000035
402.50000000005724,0.5700649999999999,-41.442800000000005,2.018800000000006
403.00000000005736,0.597905,-39.2156,2.2272000000000034
403.50000000005747,0.612735,-38.0292,1.186399999999999
404.0000000000576,0.5918749999999999,-39.69800000000001,-1.6688000000000045
404.5000000000577,0.5755699999999999,-41.00240000000001,-1.3044000000000011
405.0000000000578,0.5744549999999999,-41.09160000000001,-0.08919999999999817
405.5000000000579,0.584765,-40.2668,0.8248000000000033
406.00000000005804,0.569385,-41.4972,-1.230399999999996
406.50000000005815,0.55585,-42.580000000000005,-1.082800000000006
407.00000000005826,0.564395,-41.89640000000001,0.6835999999999984
407.5000000000584,0.54685,-43.300000000000004,-1.4035999999999973
408.0000000000585,0.5270050000000001,-44.8876,-1.5875999999999948
408.5000000000586,0.519285,-45.5052,-0.617600000000003
409.0000000000587,0.531695,-44.5124,0.9928000000000026
409.50000000005883,0.5305000000000001,-44.608,-0.09559999999999746
410.00000000005895,0.572465,-41.250800000000005,3.3571999999999917
410.50000000005906,0.574375,-41.098000000000006,0.15279999999999916
411.0000000000592,0.6073299999999999,-38.46160000000001,2.6363999999999947
411.5000000000593,0.61977,-37.4664,0.9952000000000112
412.0000000000594,0.628785,-36.7452,0.7212000000000032
412.5000000000595,0.6267449999999999,-36.908400000000015,-0.16320000000001755
413.00000000005963,0.6201049999999999,-37.43960000000001,-0.5311999999999983
413.50000000005974,0.6256499999999999,-36.99600000000001,0.44360000000000355
414.00000000005986,0.621885,-37.297200000000004,-0.30119999999999436
414.50000000005997,0.6289149999999999,-36.734800000000014,0.5623999999999896
415.0000000000601,0.63452,-36.28640000000001,0.44840000000000657
415.5000000000602,0.6575599999999999,-34.44320000000001,1.843199999999996
416.0000000000603,0.6468499999999999,-35.30000000000001,-0.8567999999999998
416.5000000000604,0.637655,-36.0356,-0.7355999999999909
417.00000000006054,0.6232749999999999,-37.18600000000001,-1.1504000000000048
417.50000000006065,0.600595,-39.000400000000006,-1.8143999999999991
418.00000000006077,0.606475,-38.53,0.47040000000000504
418.5000000000609,0.577595,-40.8404,-2.3104000000000013
419.000000000061,0.542435,-43.653200000000005,-2.812800000000003
419.5000000000611,0.48844000000000004,-47.97280000000001,-4.319600000000001
420.0000000000612,0.47436,-49.0992,-1.1263999999999967
420.50000000006133,0.52523,-45.0296,4.069600000000001
421.00000000006145,0.5127349999999999,-46.02920000000001,-0.999600000000008
421.50000000006156,0.525575,-45.002,1.0272000000000077
422.0000000000617,0.548875,-43.138000000000005,1.8639999999999972
422.5000000000618,0.523055,-45.2036,-2.0655999999999963
423.0000000000619,0.529595,-44.6804,0.5232000000000028
423.500000000062,0.531225,-44.550000000000004,0.13039999999999452
424.00000000006213,0.533285,-44.385200000000005,0.1647999999999996
424.50000000006224,0.5632949999999999,-41.984400000000015,2.4007999999999896
425.00000000006236,0.5862,-40.152,1.832400000000014
425.50000000006247,0.575345,-41.0204,-0.8684000000000012
426.0000000000626,0.56482,-41.8624,-0.8419999999999987
426.5000000000627,0.5333650000000001,-44.3788,-2.5163999999999973
427.0000000000628,0.47474,-49.06880000000001,-4.690000000000012
427.5000000000629,0.49002500000000004,-47.846,1.2228000000000137
428.00000000006304,0.48222499999999996,-48.47000000000001,-0.6240000000000165
428.50000000006315,0.37255499999999997,-57.24360000000001,-8.773599999999995
429.00000000006327,0.4354,-52.216,5.027600000000007
429.5000000000634,0.539105,-43.91960000000001,8.296399999999991
430.0000000000635,0.57515,-41.036,2.8836000000000084
430.5000000000636,0.5627150000000001,-42.0308,-0.9947999999999979
431.0000000000637,0.574555,-41.0836,0.9472000000000023
431.50000000006384,0.5757449999999998,-40.98840000000001,0.09519999999998419
432.00000000006395,0.52296,-45.211200000000005,-4.222799999999992
432.50000000006406,0.49508,-47.44160000000001,-2.230400000000003
433.0000000000642,0.44566999999999996,-51.394400000000005,-3.9527999999999963
433.5000000000643,0.48041,-48.6152,2.779200000000003
434.0000000000644,0.40268499999999996,-54.833200000000005,-6.2180000000000035
434.5000000000645,0.5025000000000001,-46.848,7.985200000000006
435.00000000006463,0.48475999999999997,-48.2672,-1.4192000000000036
435.50000000006474,0.583935,-40.333200000000005,7.9339999999999975
436.00000000006486,0.581175,-40.554,-0.220799999999997
436.500000000065,0.579815,-40.662800000000004,-0.10880000000000223
437.0000000000651,0.578525,-40.766000000000005,-0.10320000000000107
437.5000000000652,0.59042,-39.814400000000006,0.9515999999999991
438.0000000000653,0.61337,-37.97840000000001,1.8359999999999985
438.5000000000654,0.6327849999999999,-36.42520000000001,1.5531999999999968
439.00000000006554,0.6346849999999999,-36.27320000000001,0.15200000000000102
439.50000000006565,0.628695,-36.7524,-0.47919999999999163
440.00000000006577,0.6043350000000001,-38.7012,-1.9487999999999985
440.5000000000659,0.6129249999999999,-38.01400000000001,0.68719999999999
441.000000000066,0.6003000000000001,-39.024,-1.009999999999991
441.5000000000661,0.630225,-36.63,2.3939999999999984
442.0000000000662,0.62854,-36.7648,-0.13479999999999848
442.50000000006634,0.6063050000000001,-38.5436,-1.7787999999999968
443.00000000006645,0.5747899999999999,-41.06480000000001,-2.5212000000000145
443.50000000006656,0.61519,-37.8328,3.2320000000000135
444.0000000000667,0.630395,-36.6164,1.2164000000000001
444.5000000000668,0.6325799999999999,-36.44160000000001,0.17479999999999052
445.0000000000669,0.6300399999999999,-36.64480000000001,-0.2032000000000025
445.500000000067,0.6379900000000001,-36.0088,0.6360000000000099
446.00000000006713,0.607745,-38.4284,-2.4196000000000026
446.50000000006725,0.504935,-46.6532,-8.224799999999995
447.00000000006736,0.603875,-38.738,7.915199999999999
447.5000000000675,0.518635,-45.55720000000001,-6.819200000000009
448.0000000000676,0.529905,-44.65560000000001,0.901600000000002
448.5000000000677,0.52393,-45.1336,-0.47799999999999443
449.0000000000678,0.592495,-39.6484,5.485199999999999
449.5000000000679,0.623095,-37.20040000000001,2.4479999999999933
450.00000000006804,0.62172,-37.3104,-0.10999999999999233
450.50000000006816,0.612485,-38.049200000000006,-0.7388000000000048
451.00000000006827,0.606975,-38.49,-0.44079999999999586
451.5000000000684,0.6046799999999999,-38.673600000000015,-0.18360000000001264
452.0000000000685,0.599105,-39.119600000000005,-0.44599999999999085
452.5000000000686,0.501785,-46.9052,-7.785599999999995
453.0000000000687,0.60095,-38.972,7.933199999999999
453.50000000006884,0.5872999999999999,-40.06400000000001,-1.0920000000000059
454.00000000006895,0.6103750000000001,-38.217999999999996,1.8460000000000107
454.50000000006906,0.55838,-42.3776,-4.159600000000005
455.0000000000692,0.61094,-38.1728,4.204799999999999
455.5000000000693,0.63692,-36.0944,2.078400000000002
456.0000000000694,0.6425250000000001,-35.645999999999994,0.44840000000000657
456.5000000000695,0.632075,-36.482,-0.8360000000000056
457.00000000006963,0.63866,-35.955200000000005,0.5267999999999944
457.50000000006975,0.6557600000000001,-34.587199999999996,1.3680000000000092
458.00000000006986,0.6349099999999999,-36.255200000000016,-1.6680000000000206
458.50000000007,0.636995,-36.08840000000001,0.16680000000000916
459.0000000000701,0.637675,-36.034000000000006,0.054400000000001114
459.5000000000702,0.6438250000000001,-35.541999999999994,0.49200000000001154
460.0000000000703,0.6151049999999999,-37.83960000000001,-2.297600000000017
460.50000000007043,0.6371800000000001,-36.0736,1.7660000000000124
461.00000000007054,0.6454049999999999,-35.41560000000001,0.657999999999987
461.50000000007066,0.672685,-33.233200000000004,2.1824000000000083
462.00000000007077,0.6207450000000001,-37.3884,-4.155199999999994
462.5000000000709,0.6527149999999999,-34.83080000000001,2.5575999999999866
463.000000000071,0.632625,-36.438,-1.6071999999999917
463.5000000000711,0.62802,-36.806400000000004,-0.36840000000000117
464.0000000000712,0.66252,-34.046400000000006,2.759999999999998
464.50000000007134,0.6941299999999999,-31.517600000000012,2.5287999999999933
465.00000000007145,0.6918949999999999,-31.69640000000001,-0.17879999999999896
465.50000000007157,0.67927,-32.7064,-1.009999999999991
466.0000000000717,0.6833,-32.384,0.3224000000000018
466.5000000000718,0.70457,-30.6824,1.7015999999999991
467.0000000000719,0.7085950000000001,-30.3604,0.32200000000000273
467.500000000072,0.6971849999999999,-31.27320000000001,-0.9128000000000114
468.00000000007213,0.6658350000000001,-33.7812,-2.5079999999999885
468.50000000007225,0.6485650000000001,-35.1628,-1.3815999999999988
469.00000000007236,0.6709949999999999,-33.36840000000001,1.794399999999989
469.5000000000725,0.679,-32.728,0.6404000000000067
470.0000000000726,0.668435,-33.5732,-0.8451999999999984
470.5000000000727,0.651485,-34.9292,-1.3560000000000016
471.0000000000728,0.6400049999999999,-35.84760000000001,-0.9184000000000054
471.50000000007293,0.6619,-34.096,1.7516000000000105
472.00000000007304,0.6522349999999999,-34.86920000000001,-0.773200000000017
472.50000000007316,0.61871,-37.5512,-2.681999999999988
473.00000000007327,0.6412300000000001,-35.749599999999994,1.8016000000000076
473.5000000000734,0.645645,-35.3964,0.35319999999999396
474.0000000000735,0.6123900000000001,-38.056799999999996,-2.6603999999999957
474.5000000000736,0.62691,-36.8952,1.1615999999999929
475.0000000000737,0.638725,-35.95,0.9451999999999998
475.50000000007384,0.5905750000000001,-39.802,-3.8519999999999968
476.00000000007395,0.65526,-34.62720000000001,5.1747999999999905
476.50000000007407,0.61848,-37.5696,-2.942399999999992
477.0000000000742,0.610445,-38.2124,-0.6428000000000011
477.5000000000743,0.621125,-37.358,0.8544000000000054
478.0000000000744,0.6289750000000001,-36.73,0.6280000000000001
478.5000000000745,0.649575,-35.082,1.6479999999999961
479.00000000007464,0.648445,-35.172399999999996,-0.09039999999999537
479.50000000007475,0.6213799999999999,-37.33760000000001,-2.165200000000013
480.00000000007486,0.6605700000000001,-34.2024,3.1352000000000118
480.500000000075,0.62834,-36.7808,-2.578400000000002
481.0000000000751,0.6575599999999999,-34.44320000000001,2.3375999999999877
481.5000000000752,0.59602,-39.366400000000006,-4.923199999999994
482.0000000000753,0.6513500000000001,-34.94,4.426400000000008
482.50000000007543,0.66035,-34.220000000000006,0.7199999999999918
483.00000000007554,0.659875,-34.258,-0.0379999999999967
483.50000000007566,0.67371,-33.1512,1.1067999999999998
484.0000000000758,0.613365,-37.9788,-4.827599999999997
484.5000000000759,0.66954,-33.4848,4.494
485.000000000076,0.6433849999999999,-35.57720000000001,-2.092400000000012
485.5000000000761,0.6700600000000001,-33.4432,2.1340000000000146
486.0000000000762,0.610565,-38.2028,-4.759600000000006
486.50000000007634,0.640765,-35.7868,2.416000000000004
487.00000000007645,0.64796,-35.211200000000005,0.5755999999999943
487.50000000007657,0.6527999999999999,-34.824000000000005,0.3872
488.0000000000767,0.6556,-34.60000000000001,0.22399999999999665
488.5000000000768,0.616515,-37.7268,-3.1267999999999887
489.0000000000769,0.5950099999999999,-39.44720000000001,-1.7204000000000121
489.500000000077,0.592055,-39.683600000000006,-0.23639999999999617
490.00000000007714,0.624645,-37.0764,2.607200000000006
490.50000000007725,0.6307050000000001,-36.5916,0.4847999999999999
491.00000000007736,0.619135,-37.5172,-0.9256000000000029
491.5000000000775,0.6049499999999999,-38.652000000000015,-1.1348000000000127
492.0000000000776,0.5963499999999999,-39.34000000000001,-0.6879999999999953
492.5000000000777,0.6122150000000001,-38.0708,1.269200000000012
493.0000000000778,0.6183099999999999,-37.58320000000001,0.48759999999998627
493.50000000007793,0.62085,-37.38,0.2032000000000096
494.00000000007805,0.6324399999999999,-36.45280000000001,0.927199999999992
