Time[s],Volt[V],ReceivedPower[dBm],1step_diff[dB]
1.0000000000000002,0.288145,-63.9964,0.36600000000000676
1.5000000000000007,0.277565,-64.8428,-0.8463999999999956
2.000000000000001,0.20536000000000004,-70.6192,-5.7764000000000095
2.499999999999999,0.20418499999999998,-70.7132,-0.09399999999999409
2.9999999999999973,0.213225,-69.99,0.7232000000000056
3.4999999999999956,0.28164500000000003,-64.5164,5.4735999999999905
3.999999999999994,0.19591,-71.37519999999999,-6.858799999999988
4.499999999999992,0.25901,-66.3272,5.047999999999988
4.99999999999999,0.21628000000000003,-69.7456,-3.4183999999999912
5.4999999999999885,0.24248499999999998,-67.64920000000001,2.0963999999999885
5.999999999999987,0.24328999999999995,-67.5848,0.06440000000000623
6.499999999999985,0.25789999999999996,-66.416,1.1688000000000045
6.999999999999983,0.30454,-62.6848,3.731199999999994
7.499999999999981,0.24238500000000002,-67.65719999999999,-4.972399999999986
7.99999999999998,0.308975,-62.330000000000005,5.3271999999999835
8.499999999999986,0.29296500000000003,-63.6108,-1.2807999999999922
8.999999999999993,0.2513949999999999,-66.9364,-3.3256000000000085
9.5,0.24311000000000002,-67.5992,-0.6627999999999901
10.000000000000007,0.23964,-67.8768,-0.27760000000000673
10.500000000000014,0.250315,-67.02279999999999,0.8540000000000134
11.000000000000021,0.261505,-66.1276,0.8951999999999884
11.500000000000028,0.30578999999999995,-62.5848,3.5427999999999997
12.000000000000036,0.244265,-67.5068,-4.921999999999997
12.500000000000043,0.25955000000000006,-66.28399999999999,1.2228000000000065
13.00000000000005,0.26969,-65.4728,0.8111999999999853
13.500000000000057,0.28307000000000004,-64.4024,1.0704000000000065
14.000000000000064,0.27424,-65.1088,-0.7064000000000021
14.500000000000071,0.251465,-66.93079999999999,-1.8219999999999885
15.000000000000078,0.29497500000000004,-63.45,3.480799999999988
15.500000000000085,0.29694,-63.29280000000001,0.157199999999996
16.000000000000092,0.274455,-65.0916,-1.7987999999999928
16.5000000000001,0.24467999999999995,-67.4736,-2.382000000000005
17.000000000000107,0.27867499999999995,-64.754,2.7196
17.500000000000114,0.280155,-64.63560000000001,0.11839999999999407
18.00000000000012,0.24640999999999996,-67.3352,-2.6995999999999896
18.500000000000128,0.27161500000000005,-65.3188,2.0164000000000044
19.000000000000135,0.26346499999999995,-65.97080000000001,-0.6520000000000152
19.500000000000142,0.21020500000000003,-70.2316,-4.260799999999989
20.00000000000015,0.22887999999999997,-68.7376,1.4939999999999998
20.500000000000156,0.22083999999999998,-69.38080000000001,-0.6432000000000073
21.000000000000163,0.22962000000000002,-68.6784,0.7024000000000115
21.50000000000017,0.24926000000000004,-67.10719999999999,1.5712000000000046
22.000000000000178,0.20267,-70.8344,-3.7272000000000105
22.500000000000185,0.239655,-67.8756,2.9587999999999965
23.000000000000192,0.21151500000000004,-70.1268,-2.251199999999997
23.5000000000002,0.263235,-65.9892,4.137600000000006
24.000000000000206,0.27544500000000005,-65.0124,0.9767999999999972
24.500000000000213,0.257105,-66.4796,-1.4672000000000054
25.00000000000022,0.20734999999999998,-70.46000000000001,-3.980400000000003
25.500000000000227,0.24738000000000002,-67.2576,3.2024000000000115
26.000000000000234,0.26966999999999997,-65.4744,1.7831999999999937
26.50000000000024,0.27568,-64.9936,0.4808000000000021
27.00000000000025,0.28468,-64.2736,0.7199999999999989
27.500000000000256,0.27199,-65.28880000000001,-1.0152000000000072
28.000000000000263,0.19812000000000002,-71.19839999999999,-5.909599999999983
28.50000000000027,0.282135,-64.4772,6.721199999999996
29.000000000000277,0.28647999999999996,-64.12960000000001,0.3475999999999857
29.500000000000284,0.26378,-65.9456,-1.8159999999999883
30.00000000000029,0.24959000000000003,-67.0808,-1.1351999999999975
30.5000000000003,0.257375,-66.458,0.622799999999998
31.000000000000306,0.19729000000000002,-71.26480000000001,-4.80680000000001
31.500000000000313,0.22738,-68.8576,2.407200000000003
32.00000000000032,0.23239,-68.4568,0.4008000000000038
32.50000000000029,0.252435,-66.8532,1.6036000000000001
33.00000000000026,0.25823,-66.3896,0.46359999999999957
33.500000000000234,0.262885,-66.0172,0.37239999999999895
34.000000000000206,0.20385,-70.74000000000001,-4.7228000000000065
34.50000000000018,0.175755,-72.9876,-2.2475999999999914
35.00000000000015,0.22709000000000007,-68.8808,4.106800000000007
35.50000000000012,0.22868999999999998,-68.75280000000001,0.1279999999999859
36.00000000000009,0.21475,-69.868,-1.1151999999999873
36.500000000000064,0.31059500000000007,-62.200399999999995,7.6676
37.000000000000036,0.25806,-66.4032,-4.202800000000003
37.50000000000001,0.29217000000000004,-63.6744,2.7287999999999997
37.99999999999998,0.28345,-64.372,-0.6976000000000013
38.49999999999995,0.268435,-65.5732,-1.2012
38.99999999999992,0.33308000000000004,-60.4016,5.171599999999998
39.49999999999989,0.26080000000000003,-66.184,-5.7823999999999955
39.999999999999865,0.251405,-66.93560000000001,-0.7516000000000105
40.49999999999984,0.319085,-61.5212,5.414400000000008
40.99999999999981,0.25792,-66.4144,-4.8932
41.49999999999978,0.279185,-64.7132,1.7012
41.99999999999975,0.22969499999999998,-68.6724,-3.9591999999999956
42.49999999999972,0.355915,-58.5748,10.097599999999993
42.999999999999694,0.287265,-64.0668,-5.491999999999997
43.499999999999666,0.31745,-61.652,2.4147999999999996
43.99999999999964,0.325125,-61.038000000000004,0.6139999999999972
44.49999999999961,0.29096500000000003,-63.7708,-2.7327999999999975
44.99999999999958,0.322695,-61.232400000000005,2.5383999999999958
45.49999999999955,0.265095,-65.84039999999999,-4.607999999999983
45.999999999999524,0.302975,-62.81,3.030399999999986
46.499999999999496,0.298455,-63.1716,-0.3615999999999957
46.99999999999947,0.33713499999999996,-60.077200000000005,3.094399999999993
47.49999999999944,0.32474499999999995,-61.068400000000004,-0.9911999999999992
47.99999999999941,0.30571000000000004,-62.5912,-1.5227999999999966
48.49999999999938,0.36087,-58.1784,4.412799999999997
48.99999999999935,0.35606,-58.5632,-0.3847999999999985
49.499999999999325,0.3461,-59.36,-0.7967999999999975
49.9999999999993,0.33922500000000005,-59.91,-0.5499999999999972
50.49999999999927,0.34482000000000007,-59.462399999999995,0.44760000000000133
50.99999999999924,0.33835,-59.98000000000001,-0.5176000000000158
51.49999999999921,0.36890999999999996,-57.5352,2.444800000000008
51.99999999999918,0.31220500000000007,-62.0716,-4.536399999999993
52.499999999999154,0.29313500000000003,-63.5972,-1.5256000000000043
52.999999999999126,0.219775,-69.466,-5.868799999999993
53.4999999999991,0.27635,-64.94,4.525999999999996
53.99999999999907,0.32930000000000004,-60.704,4.235999999999997
54.49999999999904,0.29007,-63.8424,-3.138399999999997
54.99999999999901,0.21266,-70.0352,-6.192800000000005
55.499999999998984,0.258905,-66.3356,3.6996000000000038
55.999999999998956,0.23526999999999995,-68.2264,-1.8907999999999987
56.49999999999893,0.319335,-61.50120000000001,6.725199999999987
56.9999999999989,0.30426000000000003,-62.70720000000001,-1.205999999999996
57.49999999999887,0.22060500000000002,-69.39959999999999,-6.692399999999985
57.99999999999884,0.28450500000000006,-64.2876,5.111999999999995
58.49999999999881,0.28042,-64.6144,-0.32680000000000575
58.999999999998785,0.207205,-70.47160000000001,-5.857200000000006
59.49999999999876,0.26497000000000004,-65.8504,4.621200000000016
59.99999999999873,0.17899,-72.7288,-6.878400000000013
60.4999999999987,0.243155,-67.5956,5.133200000000002
60.99999999999867,0.1975,-71.248,-3.6524
61.49999999999864,0.17797500000000002,-72.81,-1.5619999999999976
61.999999999998614,0.24734499999999998,-67.2604,5.549599999999998
62.499999999998586,0.2605,-66.208,1.0524000000000058
62.99999999999856,0.247405,-67.2556,-1.0476000000000028
63.49999999999853,0.23492999999999994,-68.2536,-0.9980000000000047
63.9999999999985,0.28401,-64.3272,3.926400000000001
64.49999999999848,0.181255,-72.5476,-8.220399999999998
64.99999999999845,0.26676,-65.7072,6.8404000000000025
65.49999999999842,0.25078000000000006,-66.9856,-1.2784000000000049
65.9999999999984,0.26615000000000005,-65.75599999999999,1.2296000000000191
66.49999999999837,0.25418999999999997,-66.7128,-0.9568000000000154
66.99999999999834,0.24438,-67.49759999999999,-0.78479999999999
67.49999999999831,0.32064000000000004,-61.3968,6.1007999999999925
67.99999999999828,0.24139500000000003,-67.7364,-6.339600000000004
68.49999999999825,0.23819500000000002,-67.9924,-0.2560000000000002
68.99999999999822,0.231485,-68.5292,-0.5367999999999995
69.4999999999982,0.20504000000000003,-70.6448,-2.1156000000000006
69.99999999999817,0.290125,-63.83800000000001,6.8067999999999955
70.49999999999814,0.22207,-69.2824,-5.4443999999999875
70.99999999999811,0.23318500000000003,-68.39320000000001,0.8891999999999882
71.49999999999808,0.276375,-64.938,3.455200000000005
71.99999999999805,0.2793,-64.70400000000001,0.23399999999999466
72.49999999999802,0.23549499999999995,-68.2084,-3.5043999999999897
72.999999999998,0.22137500000000002,-69.33800000000001,-1.1296000000000106
73.49999999999797,0.23551000000000002,-68.2072,1.1308000000000078
73.99999999999794,0.24144000000000002,-67.7328,0.4744000000000028
74.49999999999791,0.20780500000000002,-70.4236,-2.690799999999996
74.99999999999788,0.28632500000000005,-64.142,6.281599999999997
75.49999999999785,0.262705,-66.0316,-1.8896000000000015
75.99999999999783,0.23674499999999998,-68.1084,-2.0768000000000058
76.4999999999978,0.26305,-66.004,2.1043999999999983
76.99999999999777,0.22777499999999998,-68.82600000000001,-2.8220000000000027
77.49999999999774,0.17559,-73.0008,-4.1747999999999905
77.99999999999771,0.28431500000000004,-64.30279999999999,8.698000000000008
78.49999999999768,0.26858499999999996,-65.5612,-1.2584000000000088
78.99999999999766,0.29824,-63.1888,2.372399999999999
79.49999999999763,0.29117999999999994,-63.753600000000006,-0.5648000000000053
79.9999999999976,0.25925,-66.308,-2.554400000000001
80.49999999999757,0.190155,-71.8356,-5.5275999999999925
80.99999999999754,0.28337500000000004,-64.378,7.457599999999999
81.49999999999751,0.23604499999999998,-68.1644,-3.7864000000000004
81.99999999999748,0.24887,-67.1384,1.0259999999999962
82.49999999999746,0.22594499999999998,-68.97240000000001,-1.8340000000000032
82.99999999999743,0.18031,-72.6232,-3.6507999999999896
83.4999999999974,0.21180500000000002,-70.1036,2.519599999999997
83.99999999999737,0.2138,-69.944,0.15959999999999752
84.49999999999734,0.18095500000000003,-72.5716,-2.627600000000001
84.99999999999731,0.226315,-68.94279999999999,3.6288000000000125
85.49999999999729,0.15443999999999997,-74.6928,-5.750000000000014
85.99999999999726,0.24707500000000002,-67.282,7.410800000000009
86.49999999999723,0.26731999999999995,-65.6624,1.6195999999999913
86.9999999999972,0.22288999999999998,-69.21679999999999,-3.554399999999987
87.49999999999717,0.212515,-70.0468,-0.8300000000000125
87.99999999999714,0.20645000000000002,-70.532,-0.48519999999999186
88.49999999999712,0.21488999999999997,-69.85679999999999,0.6752000000000038
88.99999999999709,0.195205,-71.4316,-1.5748000000000104
89.49999999999706,0.22635500000000003,-68.9396,2.4920000000000044
89.99999999999703,0.19105999999999998,-71.7632,-2.823599999999999
90.499999999997,0.17519,-73.03280000000001,-1.2696000000000112
90.99999999999697,0.24123500000000003,-67.74919999999999,5.283600000000021
91.49999999999694,0.22421499999999997,-69.11080000000001,-1.3616000000000241
91.99999999999692,0.260115,-66.2388,2.872000000000014
92.49999999999689,0.18095,-72.572,-6.333200000000005
92.99999999999686,0.2121,-70.08,2.4920000000000044
93.49999999999683,0.216595,-69.7204,0.35960000000000036
93.9999999999968,0.26993,-65.4536,4.2668000000000035
94.49999999999677,0.27097000000000004,-65.3704,0.08319999999999084
94.99999999999675,0.26507000000000003,-65.8424,-0.4719999999999942
95.49999999999672,0.25756999999999997,-66.4424,-0.6000000000000085
95.99999999999669,0.21654999999999996,-69.724,-3.2815999999999974
96.49999999999666,0.2615,-66.128,3.5960000000000036
96.99999999999663,0.25127,-66.9464,-0.8183999999999969
97.4999999999966,0.19386,-71.5392,-4.592799999999997
97.99999999999658,0.220945,-69.3724,2.166799999999995
98.49999999999655,0.18468,-72.2736,-2.901200000000003
98.99999999999652,0.24814499999999998,-67.19640000000001,5.077199999999991
99.49999999999649,0.26317999999999997,-65.9936,1.2028000000000105
99.99999999999646,0.28717000000000004,-64.0744,1.9192000000000036
100.49999999999643,0.29054,-63.8048,0.26959999999999695
100.9999999999964,0.23047999999999996,-68.6096,-4.8048
101.49999999999638,0.25533,-66.6216,1.9879999999999995
101.99999999999635,0.16598,-73.7696,-7.147999999999996
102.49999999999632,0.241345,-67.7404,6.029200000000003
102.99999999999629,0.17328000000000002,-73.18560000000001,-5.445200000000014
103.49999999999626,0.142925,-75.614,-2.4283999999999963
103.99999999999623,0.16861,-73.5592,2.0548
104.4999999999962,0.19805,-71.204,2.3552000000000106
104.99999999999618,0.23197,-68.4904,2.7135999999999996
105.49999999999615,0.18635,-72.14,-3.6496000000000066
105.99999999999612,0.15478,-74.6656,-2.525599999999997
106.49999999999609,0.18408999999999998,-72.3208,2.3447999999999922
106.99999999999606,0.200705,-70.9916,1.3292000000000002
107.49999999999604,0.20411500000000005,-70.7188,0.2728000000000037
107.999999999996,0.203355,-70.7796,-0.06080000000000041
108.49999999999598,0.21054500000000004,-70.2044,0.5751999999999953
108.99999999999595,0.15802499999999997,-74.406,-4.201599999999999
109.49999999999592,0.172125,-73.278,1.1280000000000001
109.9999999999959,0.222165,-69.2748,4.003200000000007
110.49999999999586,0.19148,-71.7296,-2.454800000000006
110.99999999999584,0.23672499999999994,-68.11,3.6196000000000055
111.49999999999581,0.15659499999999998,-74.5204,-6.410399999999996
111.99999999999578,0.15400000000000003,-74.728,-0.20759999999999934
112.49999999999575,0.1685,-73.568,1.1599999999999966
112.99999999999572,0.170275,-73.426,0.1419999999999959
113.4999999999957,0.21789500000000003,-69.6164,3.809600000000003
113.99999999999567,0.206015,-70.5668,-0.9504000000000019
114.49999999999564,0.22847499999999998,-68.77,1.7968000000000046
114.99999999999561,0.26068,-66.1936,2.5763999999999925
115.49999999999558,0.22843,-68.7736,-2.5799999999999983
115.99999999999555,0.255625,-66.598,2.175600000000003
116.49999999999552,0.235385,-68.2172,-1.6192000000000064
116.9999999999955,0.232625,-68.438,-0.220799999999997
117.49999999999547,0.17206,-73.28320000000001,-4.8452000000000055
117.99999999999544,0.19314499999999998,-71.5964,1.6868000000000052
118.49999999999541,0.17143999999999998,-73.33279999999999,-1.736399999999989
118.99999999999538,0.20412500000000003,-70.718,2.6147999999999882
119.49999999999535,0.18614999999999998,-72.15599999999999,-1.4379999999999882
119.99999999999532,0.26002500000000006,-66.246,5.909999999999997
120.4999999999953,0.30100999999999994,-62.967200000000005,3.2787999999999897
120.99999999999527,0.289165,-63.9148,-0.9475999999999942
121.49999999999524,0.21711999999999998,-69.6784,-5.763599999999997
121.99999999999521,0.14482500000000004,-75.462,-5.783600000000007
122.49999999999518,0.21627000000000002,-69.74640000000001,5.715599999999995
122.99999999999515,0.156225,-74.55,-4.803599999999989
123.49999999999513,0.16209,-74.0808,0.4692000000000007
123.9999999999951,0.198065,-71.20280000000001,2.877999999999986
124.49999999999507,0.24915500000000002,-67.1156,4.08720000000001
124.99999999999504,0.175945,-72.9724,-5.856799999999993
125.49999999999501,0.193695,-71.5524,1.4199999999999875
125.99999999999498,0.21122499999999994,-70.15,1.4024
126.49999999999496,0.13338,-76.3776,-6.227599999999995
126.99999999999493,0.07083500000000001,-81.3812,-5.003600000000006
127.4999999999949,0.11148499999999999,-78.12920000000001,3.2519999999999953
127.99999999999487,0.143155,-75.5956,2.533600000000007
128.49999999999497,0.17346,-73.1712,2.4244000000000057
128.99999999999508,0.287515,-64.0468,9.124399999999994
129.4999999999952,0.263825,-65.94200000000001,-1.8952000000000027
129.9999999999953,0.19589,-71.3768,-5.434799999999996
130.49999999999542,0.113065,-78.00280000000001,-6.626000000000005
130.99999999999554,0.14484,-75.4608,2.5420000000000016
131.49999999999565,0.2545449999999999,-66.68440000000001,8.776399999999995
131.99999999999577,0.24705999999999997,-67.28320000000001,-0.5987999999999971
132.49999999999588,0.23111,-68.5592,-1.2759999999999962
132.999999999996,0.137445,-76.05239999999999,-7.493199999999987
133.4999999999961,0.12277999999999997,-77.2256,-1.1732000000000085
133.99999999999622,0.15497,-74.65039999999999,2.5752000000000095
134.49999999999633,0.22942999999999997,-68.6936,5.956799999999987
134.99999999999645,0.24059000000000003,-67.8008,0.8928000000000083
135.49999999999656,0.21162,-70.1184,-2.3175999999999988
135.99999999999667,0.140195,-75.8324,-5.714000000000013
136.4999999999968,0.151115,-74.9588,0.8736000000000104
136.9999999999969,0.20415999999999998,-70.7152,4.243600000000001
137.49999999999702,0.223685,-69.1532,1.5619999999999976
137.99999999999713,0.2813,-64.544,4.609200000000001
138.49999999999724,0.23664000000000002,-68.1168,-3.572800000000001
138.99999999999736,0.248875,-67.138,0.9787999999999926
139.49999999999747,0.21949999999999997,-69.488,-2.3499999999999943
139.99999999999758,0.268015,-65.6068,3.8811999999999927
140.4999999999977,0.25522999999999996,-66.62960000000001,-1.0228000000000037
140.9999999999978,0.23317000000000004,-68.39439999999999,-1.7647999999999797
141.49999999999793,0.256645,-66.5164,1.877999999999986
141.99999999999804,0.20911500000000002,-70.3188,-3.8023999999999916
142.49999999999815,0.085975,-80.17,-9.851200000000006
142.99999999999827,0.19083999999999995,-71.78080000000001,8.389199999999988
143.49999999999838,0.18135500000000002,-72.5396,-0.7587999999999795
143.9999999999985,0.16518,-73.8336,-1.2940000000000111
144.4999999999986,0.18294999999999997,-72.412,1.421599999999998
144.99999999999872,0.187305,-72.0636,0.34840000000001226
145.49999999999883,0.19680499999999998,-71.3036,0.7599999999999909
145.99999999999895,0.26544,-65.8128,5.490800000000007
146.49999999999906,0.28567,-64.1944,1.618399999999994
146.99999999999918,0.2987,-63.15200000000001,1.0423999999999936
147.4999999999993,0.26260500000000003,-66.03960000000001,-2.887599999999999
147.9999999999994,0.28134500000000007,-64.54039999999999,1.499200000000016
148.49999999999952,0.22295499999999996,-69.2116,-4.671200000000013
148.99999999999963,0.193795,-71.54440000000001,-2.332800000000006
149.49999999999974,0.17489500000000002,-73.0564,-1.5119999999999862
149.99999999999986,0.12016000000000002,-77.4352,-4.378799999999998
150.49999999999997,0.12619999999999998,-76.952,0.4831999999999965
151.00000000000009,0.15718000000000001,-74.4736,2.4783999999999935
151.5000000000002,0.22853500000000002,-68.7652,5.708400000000012
152.0000000000003,0.19961,-71.0792,-2.314000000000007
152.50000000000043,0.20609000000000002,-70.5608,0.5183999999999997
153.00000000000054,0.16142499999999999,-74.134,-3.5732
153.50000000000065,0.14359,-75.5608,-1.4268
154.00000000000077,0.096265,-79.3468,-3.7860000000000014
154.50000000000088,0.15767,-74.4344,4.912400000000005
155.000000000001,0.22218000000000004,-69.2736,5.160799999999995
155.5000000000011,0.22967500000000002,-68.67399999999999,0.5996000000000095
156.00000000000122,0.191575,-71.722,-3.048000000000002
156.50000000000134,0.25098000000000004,-66.9696,4.752399999999994
157.00000000000145,0.30991,-62.2552,4.714399999999998
157.50000000000156,0.327395,-60.8564,1.3988000000000014
158.00000000000168,0.29217,-63.6744,-2.817999999999998
158.5000000000018,0.29425999999999997,-63.507200000000005,0.16719999999999402
159.0000000000019,0.24100000000000005,-67.76799999999999,-4.260799999999982
159.50000000000202,0.24103500000000003,-67.76520000000001,0.0027999999999792635
160.00000000000213,0.307045,-62.4844,5.280800000000006
160.50000000000225,0.257465,-66.4508,-3.9664
161.00000000000236,0.27241,-65.2552,1.1955999999999989
161.50000000000247,0.17399500000000004,-73.1284,-7.873199999999997
162.0000000000026,0.18219000000000002,-72.47279999999999,0.6556000000000068
162.5000000000027,0.17034,-73.4208,-0.9480000000000075
163.0000000000028,0.2949149999999999,-63.454800000000006,9.965999999999994
163.50000000000293,0.305705,-62.5916,0.8632000000000062
164.00000000000304,0.25207,-66.8824,-4.290800000000004
164.50000000000315,0.17446,-73.0912,-6.2087999999999965
165.00000000000327,0.157665,-74.43480000000001,-1.3436000000000092
165.50000000000338,0.225935,-68.9732,5.461600000000004
166.0000000000035,0.15424500000000002,-74.7084,-5.735199999999992
166.5000000000036,0.179225,-72.71000000000001,1.9983999999999895
167.00000000000372,0.17872000000000005,-72.7504,-0.04039999999999111
167.50000000000384,0.193355,-71.5796,1.1707999999999998
168.00000000000395,0.16835,-73.58,-2.000399999999999
168.50000000000406,0.274685,-65.0732,8.506799999999998
169.00000000000418,0.24451,-67.4872,-2.4140000000000015
169.5000000000043,0.18538000000000002,-72.2176,-4.730400000000003
170.0000000000044,0.27181500000000003,-65.3028,6.9148
170.50000000000452,0.17842,-72.7744,-7.471599999999995
171.00000000000463,0.10513999999999998,-78.6368,-5.862399999999994
171.50000000000475,0.16178,-74.1056,4.531199999999998
172.00000000000486,0.20597,-70.5704,3.535199999999989
172.50000000000497,0.1899,-71.85600000000001,-1.2856000000000023
173.0000000000051,0.27964500000000003,-64.6764,7.179600000000008
173.5000000000052,0.2807449999999999,-64.58840000000001,0.08799999999999386
174.00000000000531,0.299825,-63.062000000000005,1.5264000000000024
174.50000000000543,0.33649499999999993,-60.128400000000006,2.9335999999999984
175.00000000000554,0.33502,-60.2464,-0.117999999999995
175.50000000000566,0.25608,-66.5616,-6.315199999999997
176.00000000000577,0.33425499999999997,-60.30760000000001,6.253999999999991
176.50000000000588,0.287635,-64.0372,-3.7295999999999907
177.000000000006,0.27664999999999995,-64.91600000000001,-0.8788000000000125
177.5000000000061,0.255655,-66.5956,-1.6795999999999935
178.00000000000622,0.25308499999999995,-66.8012,-0.2055999999999898
178.50000000000634,0.27304500000000004,-65.2044,1.5967999999999876
179.00000000000645,0.25132499999999997,-66.942,-1.7375999999999863
179.50000000000657,0.22203500000000004,-69.2852,-2.34320000000001
180.00000000000668,0.330545,-60.604400000000005,8.680799999999998
180.5000000000068,0.31854,-61.5648,-0.9603999999999928
181.0000000000069,0.18121,-72.55120000000001,-10.98640000000001
181.50000000000702,0.27315500000000004,-65.1956,7.35560000000001
182.00000000000713,0.31654499999999997,-61.7244,3.471199999999996
182.50000000000725,0.26447,-65.8904,-4.165999999999997
183.00000000000736,0.25728500000000004,-66.4652,-0.5747999999999962
183.50000000000747,0.32050999999999996,-61.4072,5.057999999999993
184.0000000000076,0.25291500000000006,-66.8148,-5.407600000000002
184.5000000000077,0.255965,-66.5708,0.24399999999999977
185.00000000000782,0.20476,-70.6672,-4.0963999999999885
185.50000000000793,0.1905,-71.808,-1.140800000000013
186.00000000000804,0.25105999999999995,-66.9632,4.844800000000006
186.50000000000816,0.285365,-64.2188,2.744399999999999
187.00000000000827,0.29624,-63.3488,0.8700000000000045
187.50000000000838,0.28622000000000003,-64.1504,-0.8016000000000076
188.0000000000085,0.26463,-65.8776,-1.7271999999999963
188.5000000000086,0.282215,-64.4708,1.406800000000004
189.00000000000873,0.26895,-65.532,-1.0611999999999995
189.50000000000884,0.24140499999999995,-67.7356,-2.2036000000000087
190.00000000000895,0.267675,-65.634,2.101600000000005
190.50000000000907,0.28273000000000004,-64.4296,1.2044000000000068
191.00000000000918,0.31161,-62.119200000000006,2.310399999999987
191.5000000000093,0.270125,-65.438,-3.318799999999996
192.0000000000094,0.34045500000000006,-59.8116,5.626400000000004
192.50000000000952,0.318575,-61.562,-1.750399999999999
193.00000000000963,0.30972,-62.2704,-0.7084000000000046
193.50000000000975,0.30738999999999994,-62.45680000000001,-0.18640000000000612
194.00000000000986,0.24147,-67.7304,-5.273599999999995
194.50000000000998,0.209995,-70.2484,-2.5180000000000007
195.0000000000101,0.21700999999999998,-69.6872,0.5611999999999995
195.5000000000102,0.29859,-63.1608,6.526400000000002
196.00000000001032,0.30515,-62.636,0.524799999999999
196.50000000001043,0.27756,-64.8432,-2.207199999999993
197.00000000001054,0.22351000000000001,-69.16720000000001,-4.324000000000012
197.50000000001066,0.313195,-61.9924,7.174800000000005
198.00000000001077,0.285915,-64.1748,-2.1824000000000012
198.50000000001089,0.25125000000000003,-66.94800000000001,-2.7732000000000028
199.000000000011,0.24657499999999993,-67.322,-0.3739999999999952
199.5000000000111,0.25837,-66.3784,0.9436000000000035
200.00000000001123,0.271785,-65.3052,1.0732
200.50000000001134,0.18624500000000002,-72.1484,-6.843199999999996
201.00000000001145,0.15662,-74.5184,-2.3700000000000045
201.50000000001157,0.28761499999999995,-64.03880000000001,10.47959999999999
202.00000000001168,0.30794,-62.412800000000004,1.6260000000000048
202.5000000000118,0.21536499999999997,-69.8188,-7.405999999999992
203.0000000000119,0.191465,-71.7308,-1.9120000000000061
203.50000000001202,0.222805,-69.2236,2.5071999999999974
204.00000000001214,0.15097500000000003,-74.97,-5.746399999999994
204.50000000001225,0.15294500000000003,-74.8124,0.15760000000000218
205.00000000001236,0.146005,-75.36760000000001,-0.5552000000000135
205.50000000001248,0.211555,-70.12360000000001,5.244
206.0000000000126,0.24355499999999997,-67.56360000000001,2.5600000000000023
206.5000000000127,0.276485,-64.92920000000001,2.6343999999999994
207.00000000001282,0.25376,-66.7472,-1.8179999999999978
207.50000000001293,0.26678499999999994,-65.7052,1.0420000000000016
208.00000000001305,0.28834,-63.9808,1.7244000000000028
208.50000000001316,0.26074,-66.1888,-2.2079999999999984
209.00000000001327,0.24655,-67.324,-1.1351999999999975
209.5000000000134,0.26095,-66.172,1.152000000000001
210.0000000000135,0.191035,-71.7652,-5.593199999999996
210.5000000000136,0.26395,-65.932,5.833199999999991
211.00000000001373,0.25871000000000005,-66.3512,-0.41920000000000357
211.50000000001384,0.23311,-68.3992,-2.0479999999999876
212.00000000001396,0.19777,-71.2264,-2.827200000000005
212.50000000001407,0.21996000000000002,-69.4512,1.7751999999999981
213.00000000001418,0.2987099999999999,-63.15120000000001,6.29999999999999
213.5000000000143,0.25039,-67.0168,-3.8655999999999935
214.0000000000144,0.20937,-70.2984,-3.2815999999999974
214.50000000001452,0.257,-66.488,3.8104000000000013
215.00000000001464,0.3181,-61.6,4.887999999999998
215.50000000001475,0.358955,-58.3316,3.2683999999999997
216.00000000001486,0.26276,-66.02720000000001,-7.695600000000006
216.50000000001498,0.238535,-67.96520000000001,-1.9380000000000024
217.0000000000151,0.24759500000000007,-67.2404,0.7248000000000161
217.5000000000152,0.22095499999999996,-69.3716,-2.131200000000007
218.00000000001532,0.22793999999999998,-68.8128,0.5588000000000051
218.50000000001543,0.29029000000000005,-63.824799999999996,4.9879999999999995
219.00000000001555,0.37150999999999995,-57.327200000000005,6.497599999999991
219.50000000001566,0.323665,-61.1548,-3.827599999999997
220.00000000001577,0.30870500000000006,-62.351600000000005,-1.1968000000000032
220.5000000000159,0.17743000000000003,-72.8536,-10.501999999999995
221.000000000016,0.22908500000000004,-68.7212,4.132400000000004
221.50000000001612,0.22172499999999995,-69.31,-0.5888000000000062
222.00000000001623,0.298755,-63.147600000000004,6.162399999999998
222.50000000001634,0.28689,-64.0968,-0.9491999999999976
223.00000000001646,0.31232499999999996,-62.062000000000005,2.034799999999997
223.50000000001657,0.33275,-60.428000000000004,1.6340000000000003
224.00000000001668,0.25504000000000004,-66.6448,-6.216799999999999
224.5000000000168,0.23241500000000004,-68.45479999999999,-1.809999999999988
225.0000000000169,0.31118999999999997,-62.152800000000006,6.301999999999985
225.50000000001702,0.287235,-64.0692,-1.9163999999999888
226.00000000001714,0.26049,-66.2088,-2.1396000000000015
226.50000000001725,0.343105,-59.5996,6.609199999999994
227.00000000001737,0.4081900000000001,-54.3928,5.206800000000001
227.50000000001748,0.24712,-67.2784,-12.885600000000004
228.0000000000176,0.29689,-63.296800000000005,3.9816000000000003
228.5000000000177,0.30696999999999997,-62.49040000000001,0.8063999999999965
229.00000000001782,0.366035,-57.7652,4.725200000000008
229.50000000001793,0.19165500000000002,-71.7156,-13.950399999999995
230.00000000001805,0.302865,-62.81880000000001,8.896799999999985
230.50000000001816,0.33108999999999994,-60.560800000000015,2.2579999999999956
231.00000000001828,0.40218999999999994,-54.872800000000005,5.6880000000000095
231.5000000000184,0.33723000000000003,-60.0696,-5.196799999999996
232.0000000000185,0.28482499999999994,-64.26200000000001,-4.1924000000000134
232.50000000001862,0.25783000000000006,-66.4216,-2.1595999999999833
233.00000000001873,0.257835,-66.4212,0.00039999999999906777
233.50000000001884,0.32936,-60.699200000000005,5.721999999999994
234.00000000001896,0.338555,-59.96360000000001,0.735599999999998
234.50000000001907,0.33192,-60.494400000000006,-0.5307999999999993
235.00000000001918,0.34346999999999994,-59.57040000000001,0.9239999999999995
235.5000000000193,0.33271,-60.4312,-0.8607999999999905
236.0000000000194,0.451905,-50.8956,9.535599999999995
236.50000000001953,0.42183500000000007,-53.301199999999994,-2.4055999999999926
237.00000000001964,0.37934999999999997,-56.7,-3.3988000000000085
237.50000000001975,0.36184,-58.10080000000001,-1.4008000000000038
238.00000000001987,0.32478,-61.065599999999996,-2.9647999999999897
238.50000000001998,0.32433499999999993,-61.101200000000006,-0.0356000000000094
239.0000000000201,0.44902,-51.126400000000004,9.974800000000002
239.5000000000202,0.39137,-55.738400000000006,-4.612000000000002
240.00000000002032,0.4058750000000001,-54.577999999999996,1.1604000000000099
240.50000000002044,0.30540500000000004,-62.6156,-8.037600000000005
241.00000000002055,0.34562499999999996,-59.398,3.2175999999999974
241.50000000002066,0.34856499999999996,-59.162800000000004,0.23519999999999897
242.00000000002078,0.46133499999999994,-50.141200000000005,9.0216
242.5000000000209,0.40371500000000005,-54.7508,-4.609599999999993
243.000000000021,0.280115,-64.6388,-9.888000000000005
243.50000000002112,0.31043999999999994,-62.21280000000001,2.425999999999995
244.00000000002123,0.35110499999999994,-58.9596,3.2532000000000068
244.50000000002134,0.39041000000000003,-55.8152,3.1444000000000045
245.00000000002146,0.40256,-54.8432,0.9719999999999942
245.50000000002157,0.40842999999999996,-54.3736,0.4695999999999998
246.00000000002169,0.41708000000000006,-53.681599999999996,0.6920000000000073
246.5000000000218,0.38063500000000006,-56.5972,-2.915600000000005
247.0000000000219,0.4216349999999999,-53.31720000000001,3.279999999999994
247.50000000002203,0.406505,-54.5276,-1.2103999999999928
248.00000000002214,0.463535,-49.9652,4.562399999999997
248.50000000002225,0.4676,-49.64,0.3252000000000024
249.00000000002237,0.473515,-49.1668,0.4731999999999985
249.50000000002248,0.42338,-53.177600000000005,-4.010800000000003
250.0000000000226,0.402195,-54.8724,-1.6947999999999936
250.5000000000227,0.35128000000000004,-58.9456,-4.0732
251.00000000002282,0.37777,-56.82640000000001,2.119199999999992
251.50000000002294,0.45938999999999997,-50.296800000000005,6.529600000000002
252.00000000002305,0.41755000000000003,-53.644,-3.3471999999999937
252.50000000002316,0.487735,-48.0292,5.614799999999995
253.00000000002328,0.49047,-47.81040000000001,0.21879999999999455
253.5000000000234,0.5837649999999999,-40.346800000000016,7.4635999999999925
254.0000000000235,0.598525,-39.166000000000004,1.180800000000012
254.50000000002362,0.562585,-42.0412,-2.8751999999999995
255.00000000002373,0.590455,-39.811600000000006,2.229599999999998
255.50000000002385,0.5801149999999999,-40.63880000000001,-0.8272000000000048
256.00000000002393,0.5564699999999999,-42.53040000000001,-1.8915999999999968
256.50000000002404,0.5441549999999999,-43.515600000000006,-0.985199999999999
257.00000000002416,0.5694,-41.496,2.019600000000004
257.5000000000243,0.531315,-44.54280000000001,-3.0468000000000046
258.0000000000244,0.48885499999999993,-47.939600000000006,-3.396799999999999
258.5000000000245,0.498795,-47.144400000000005,0.7952000000000012
259.0000000000246,0.5445949999999999,-43.48040000000001,3.6639999999999944
259.5000000000247,0.5334700000000001,-44.3704,-0.8899999999999864
260.00000000002484,0.46457500000000007,-49.882,-5.511600000000001
260.50000000002495,0.425285,-53.0252,-3.1432
261.00000000002507,0.49737500000000007,-47.257999999999996,5.7672000000000025
261.5000000000252,0.512375,-46.058,1.1999999999999957
262.0000000000253,0.4648149999999999,-49.86280000000001,-3.8048000000000073
262.5000000000254,0.47814999999999996,-48.79600000000001,1.0668000000000006
263.0000000000255,0.550125,-43.038000000000004,5.758000000000003
263.50000000002564,0.5225800000000002,-45.24159999999999,-2.2035999999999873
264.00000000002575,0.5390600000000001,-43.923199999999994,1.318399999999997
264.50000000002586,0.591635,-39.7172,4.205999999999996
265.000000000026,0.57546,-41.0112,-1.294000000000004
265.5000000000261,0.5294,-44.696000000000005,-3.6848000000000027
266.0000000000262,0.5066900000000001,-46.5128,-1.8167999999999935
266.5000000000263,0.5397099999999999,-43.87120000000001,2.6415999999999897
267.00000000002643,0.5592650000000001,-42.306799999999996,1.5644000000000133
267.50000000002655,0.563045,-42.004400000000004,0.30239999999999156
268.00000000002666,0.582535,-40.4452,1.5592000000000041
268.5000000000268,0.540355,-43.8196,-3.3744000000000014
269.0000000000269,0.490935,-47.7732,-3.9536000000000016
269.500000000027,0.49994500000000003,-47.0524,0.7208000000000041
270.0000000000271,0.50048,-47.0096,0.04279999999999973
270.5000000000272,0.43966500000000003,-51.87480000000001,-4.865200000000009
271.00000000002734,0.274665,-65.07480000000001,-13.200000000000003
271.50000000002746,0.461075,-50.162,14.912800000000011
272.00000000002757,0.34063,-59.7976,-9.635600000000004
272.5000000000277,0.53539,-44.2168,15.580800000000004
273.0000000000278,0.562155,-42.07560000000001,2.1411999999999907
273.5000000000279,0.49632499999999996,-47.34200000000001,-5.266400000000004
274.000000000028,0.47751,-48.8472,-1.5051999999999879
274.50000000002814,0.47235499999999997,-49.259600000000006,-0.4124000000000052
275.00000000002825,0.48446500000000003,-48.2908,0.9688000000000088
275.50000000002836,0.5620900000000001,-42.080799999999996,6.210000000000001
276.0000000000285,0.52087,-45.3784,-3.2976000000000028
276.5000000000286,0.51628,-45.7456,-0.36720000000000397
277.0000000000287,0.539925,-43.854000000000006,1.8915999999999968
277.5000000000288,0.553115,-42.7988,1.0552000000000064
278.00000000002893,0.5657700000000001,-41.78639999999999,1.0124000000000066
278.50000000002905,0.49214,-47.6768,-5.890400000000007
279.00000000002916,0.53431,-44.303200000000004,3.373599999999996
279.5000000000293,0.5345899999999999,-44.28080000000001,0.022399999999990428
280.0000000000294,0.47733,-48.8616,-4.580799999999989
280.5000000000295,0.47774,-48.8288,0.03280000000000172
281.0000000000296,0.4484749999999999,-51.17000000000001,-2.3412000000000077
281.50000000002973,0.552805,-42.823600000000006,8.346400000000003
282.00000000002984,0.5852599999999999,-40.22720000000001,2.5963999999999956
282.50000000002996,0.5338999999999999,-44.336000000000006,-4.108799999999995
283.00000000003007,0.5590050000000001,-42.3276,2.008400000000009
283.5000000000302,0.55391,-42.7352,-0.4076000000000022
284.0000000000303,0.48213,-48.47760000000001,-5.742400000000011
284.5000000000304,0.5609249999999999,-42.174000000000014,6.303599999999996
285.0000000000305,0.5820599999999999,-40.48320000000001,1.690800000000003
285.50000000003064,0.5625500000000001,-42.044,-1.5607999999999862
286.00000000003075,0.5617699999999999,-42.106400000000015,-0.062400000000018
286.50000000003087,0.5621400000000001,-42.0768,0.02960000000001628
287.000000000031,0.508865,-46.3388,-4.2620000000000005
287.5000000000311,0.4272,-52.872,-6.533200000000001
288.0000000000312,0.52901,-44.7272,8.144799999999996
288.5000000000313,0.51407,-45.9224,-1.1951999999999998
289.00000000003143,0.46688999999999997,-49.6968,-3.7744
289.50000000003155,0.479,-48.728,0.9688000000000017
290.00000000003166,0.485005,-48.2476,0.48040000000000305
290.5000000000318,0.47874,-48.74880000000001,-0.5012000000000114
291.0000000000319,0.463345,-49.9804,-1.2315999999999931
291.500000000032,0.4741999999999999,-49.11200000000001,0.8683999999999941
292.0000000000321,0.49273500000000003,-47.6292,1.4828000000000117
