"ファイル名","WAVE0010.CSV","V 1.11"
"タイトルコメント","試験122205"
"トリガ時刻","25-05-16 14:12:49"
"CH","Mode","Range","Comment","Scaling","Ratio","Offset"
"CH-3","電圧","1V","REC","OFF","-","-"
"CH-10","電圧","10V","PULSE","OFF","-","-"
"Time","CH-3[V]","CH-10[V]","Event",
 0.000000000E+00, 5.71750E-01, 5.50000E-03,0,
 5.000000000E-02, 5.67350E-01, 5.50000E-03,0,
 1.000000000E-01, 5.61900E-01, 6.00000E-03,0,
 1.500000000E-01, 5.59700E-01, 6.00000E-03,0,
 2.000000000E-01, 5.61850E-01, 5.50000E-03,0,
 2.500000000E-01, 5.60800E-01, 6.00000E-03,0,
 3.000000000E-01, 5.67400E-01, 5.50000E-03,0,
 3.500000000E-01, 5.75300E-01, 5.50000E-03,0,
 4.000000000E-01, 5.67450E-01, 6.00000E-03,0,
 4.500000000E-01, 5.79000E-01, 5.50000E-03,0,
 5.000000000E-01, 5.80300E-01, 6.00000E-03,0,
 5.500000000E-01, 5.82450E-01, 5.50000E-03,0,
 6.000000000E-01, 5.85400E-01, 5.50000E-03,0,
 6.500000000E-01, 5.77950E-01, 5.50000E-03,0,
 7.000000000E-01, 5.71900E-01, 5.50000E-03,0,
 7.500000000E-01, 5.66950E-01, 6.00000E-03,0,
 8.000000000E-01, 5.55150E-01, 5.50000E-03,0,
 8.500000000E-01, 5.63750E-01, 6.00000E-03,0,
 9.000000000E-01, 5.59700E-01, 5.50000E-03,0,
 9.500000000E-01, 5.63400E-01, 5.50000E-03,0,
 1.000000000E+00, 5.66700E-01, 5.50000E-03,0,
 1.050000000E+00, 5.66400E-01, 5.50000E-03,0,
 1.100000000E+00, 5.63500E-01, 6.00000E-03,0,
 1.150000000E+00, 5.64650E-01, 5.50000E-03,0,
 1.200000000E+00, 5.62400E-01, 5.50000E-03,0,
 1.250000000E+00, 5.61850E-01, 5.50000E-03,0,
 1.300000000E+00, 5.67050E-01, 5.50000E-03,0,
 1.350000000E+00, 5.66700E-01, 5.50000E-03,0,
 1.400000000E+00, 5.62900E-01, 5.50000E-03,0,
 1.450000000E+00, 5.68750E-01, 6.00000E-03,0,
 1.500000000E+00, 5.69650E-01, 5.50000E-03,0,
 1.550000000E+00, 5.67850E-01, 5.50000E-03,0,
 1.600000000E+00, 5.66700E-01, 5.50000E-03,0,
 1.650000000E+00, 5.61500E-01, 5.50000E-03,0,
 1.700000000E+00, 5.61050E-01, 6.00000E-03,0,
 1.750000000E+00, 5.66350E-01, 5.50000E-03,0,
 1.800000000E+00, 5.70800E-01, 6.50000E-03,0,
 1.850000000E+00, 5.75200E-01, 4.93050E+00,0,
 1.900000000E+00, 5.84600E-01, 4.93050E+00,0,
 1.950000000E+00, 5.89300E-01, 4.93100E+00,0,
 2.000000000E+00, 5.88200E-01, 6.00000E-03,0,
 2.050000000E+00, 5.92650E-01, 5.50000E-03,0,
 2.100000000E+00, 5.93800E-01, 5.50000E-03,0,
 2.150000000E+00, 5.91200E-01, 5.50000E-03,0,
 2.200000000E+00, 5.86750E-01, 5.50000E-03,0,
 2.250000000E+00, 5.85200E-01, 5.50000E-03,0,
 2.300000000E+00, 5.78200E-01, 6.00000E-03,0,
 2.350000000E+00, 5.76250E-01, 5.50000E-03,0,
 2.400000000E+00, 5.73900E-01, 6.00000E-03,0,
 2.450000000E+00, 5.71500E-01, 6.00000E-03,0,
 2.500000000E+00, 5.73850E-01, 5.50000E-03,0,
 2.550000000E+00, 5.73550E-01, 6.00000E-03,0,
 2.600000000E+00, 5.76900E-01, 5.50000E-03,0,
 2.650000000E+00, 5.76450E-01, 5.50000E-03,0,
 2.700000000E+00, 5.81400E-01, 4.93050E+00,0,
 2.750000000E+00, 5.54400E-01, 4.93050E+00,0,
 2.800000000E+00, 5.83650E-01, 4.93050E+00,0,
 2.850000000E+00, 5.79800E-01, 6.00000E-03,0,
 2.900000000E+00, 5.76550E-01, 5.50000E-03,0,
 2.950000000E+00, 5.79300E-01, 5.50000E-03,0,
 3.000000000E+00, 5.59600E-01, 5.50000E-03,0,
 3.050000000E+00, 5.47800E-01, 4.93050E+00,0,
 3.100000000E+00, 5.37600E-01, 6.00000E-03,0,
 3.150000000E+00, 5.46950E-01, 6.00000E-03,0,
 3.200000000E+00, 5.58050E-01, 5.50000E-03,0,
 3.250000000E+00, 5.63650E-01, 4.93050E+00,0,
 3.300000000E+00, 5.81700E-01, 4.93050E+00,0,
 3.350000000E+00, 5.83550E-01, 5.50000E-03,0,
 3.400000000E+00, 5.79350E-01, 6.00000E-03,0,
 3.450000000E+00, 5.90200E-01, 6.00000E-03,0,
 3.500000000E+00, 5.91050E-01, 5.50000E-03,0,
 3.550000000E+00, 5.92800E-01, 4.93050E+00,0,
 3.600000000E+00, 5.96250E-01, 4.93100E+00,0,
 3.650000000E+00, 5.96950E-01, 5.50000E-03,0,
 3.700000000E+00, 6.00400E-01, 5.50000E-03,0,
 3.750000000E+00, 6.09650E-01, 5.50000E-03,0,
 3.800000000E+00, 6.14550E-01, 5.50000E-03,0,
 3.850000000E+00, 6.21200E-01, 6.00000E-03,0,
 3.900000000E+00, 6.15050E-01, 4.93050E+00,0,
 3.950000000E+00, 6.16200E-01, 4.93050E+00,0,
 4.000000000E+00, 6.15450E-01, 5.50000E-03,0,
 4.050000000E+00, 6.03900E-01, 5.50000E-03,0,
 4.100000000E+00, 5.82350E-01, 5.50000E-03,0,
 4.150000000E+00, 5.79350E-01, 6.00000E-03,0,
 4.200000000E+00, 5.85850E-01, 4.93050E+00,0,
 4.250000000E+00, 5.82450E-01, 5.50000E-03,0,
 4.300000000E+00, 5.80650E-01, 5.50000E-03,0,
 4.350000000E+00, 5.79500E-01, 5.50000E-03,0,
 4.400000000E+00, 5.78950E-01, 5.50000E-03,0,
 4.450000000E+00, 5.74350E-01, 4.93050E+00,0,
 4.500000000E+00, 5.70750E-01, 5.50000E-03,0,
 4.550000000E+00, 5.58800E-01, 5.50000E-03,0,
 4.600000000E+00, 5.59850E-01, 5.50000E-03,0,
 4.650000000E+00, 5.64450E-01, 4.93050E+00,0,
 4.700000000E+00, 5.71250E-01, 4.93050E+00,0,
 4.750000000E+00, 6.06950E-01, 5.50000E-03,0,
 4.800000000E+00, 6.14200E-01, 5.50000E-03,0,
 4.850000000E+00, 6.14350E-01, 5.50000E-03,0,
 4.900000000E+00, 6.29300E-01, 4.93050E+00,0,
 4.950000000E+00, 6.04850E-01, 4.93050E+00,0,
 5.000000000E+00, 5.78200E-01, 6.00000E-03,0,
 5.050000000E+00, 5.51650E-01, 5.50000E-03,0,
 5.100000000E+00, 5.30450E-01, 5.50000E-03,0,
 5.150000000E+00, 5.42450E-01, 4.93050E+00,0,
 5.200000000E+00, 5.65800E-01, 5.50000E-03,0,
 5.250000000E+00, 5.66100E-01, 5.50000E-03,0,
 5.300000000E+00, 5.68100E-01, 5.50000E-03,0,
 5.350000000E+00, 5.68450E-01, 5.50000E-03,0,
 5.400000000E+00, 5.63700E-01, 4.93050E+00,0,
 5.450000000E+00, 5.61550E-01, 4.93050E+00,0,
 5.500000000E+00, 5.37650E-01, 5.50000E-03,0,
 5.550000000E+00, 5.41250E-01, 5.50000E-03,0,
 5.600000000E+00, 5.51700E-01, 5.50000E-03,0,
 5.650000000E+00, 5.66650E-01, 4.93050E+00,0,
 5.700000000E+00, 5.75150E-01, 5.50000E-03,0,
 5.750000000E+00, 5.53850E-01, 5.50000E-03,0,
 5.800000000E+00, 5.19250E-01, 5.50000E-03,0,
 5.850000000E+00, 4.95100E-01, 4.93050E+00,0,
 5.900000000E+00, 4.97750E-01, 4.93050E+00,0,
 5.950000000E+00, 5.20450E-01, 5.50000E-03,0,
 6.000000000E+00, 5.40050E-01, 5.50000E-03,0,
 6.050000000E+00, 5.75100E-01, 5.50000E-03,0,
 6.100000000E+00, 5.85700E-01, 4.93050E+00,0,
 6.150000000E+00, 5.80100E-01, 5.50000E-03,0,
 6.200000000E+00, 5.85550E-01, 5.50000E-03,0,
 6.250000000E+00, 5.59900E-01, 5.50000E-03,0,
 6.300000000E+00, 5.74500E-01, 6.00000E-03,0,
 6.350000000E+00, 5.86600E-01, 4.93050E+00,0,
 6.400000000E+00, 5.93250E-01, 5.50000E-03,0,
 6.450000000E+00, 5.63250E-01, 5.50000E-03,0,
 6.500000000E+00, 5.29400E-01, 5.50000E-03,0,
 6.550000000E+00, 5.40350E-01, 4.93050E+00,0,
 6.600000000E+00, 5.25900E-01, 4.93100E+00,0,
 6.650000000E+00, 4.70350E-01, 5.50000E-03,0,
 6.700000000E+00, 4.89150E-01, 5.50000E-03,0,
 6.750000000E+00, 5.32050E-01, 5.50000E-03,0,
 6.800000000E+00, 5.65450E-01, 4.93050E+00,0,
 6.850000000E+00, 5.88450E-01, 4.93050E+00,0,
 6.900000000E+00, 5.60700E-01, 5.50000E-03,0,
 6.950000000E+00, 5.43850E-01, 6.00000E-03,0,
 7.000000000E+00, 5.16900E-01, 5.50000E-03,0,
 7.050000000E+00, 4.76800E-01, 5.50000E-03,0,
 7.100000000E+00, 4.71050E-01, 4.93050E+00,0,
 7.150000000E+00, 4.72700E-01, 4.93100E+00,0,
 7.200000000E+00, 5.04300E-01, 5.50000E-03,0,
 7.250000000E+00, 5.46750E-01, 5.50000E-03,0,
 7.300000000E+00, 5.58550E-01, 6.00000E-03,0,
 7.350000000E+00, 5.51300E-01, 5.50000E-03,0,
 7.400000000E+00, 5.42450E-01, 4.93050E+00,0,
 7.450000000E+00, 5.20650E-01, 4.93050E+00,0,
 7.500000000E+00, 5.16500E-01, 6.00000E-03,0,
 7.550000000E+00, 5.11250E-01, 5.50000E-03,0,
 7.600000000E+00, 5.13950E-01, 5.50000E-03,0,
 7.650000000E+00, 5.22150E-01, 5.50000E-03,0,
 7.700000000E+00, 5.48500E-01, 4.93050E+00,0,
 7.750000000E+00, 5.70450E-01, 5.50000E-03,0,
 7.800000000E+00, 5.88050E-01, 5.50000E-03,0,
 7.850000000E+00, 5.95750E-01, 5.50000E-03,0,
 7.900000000E+00, 6.00200E-01, 5.50000E-03,0,
 7.950000000E+00, 5.93300E-01, 4.93050E+00,0,
 8.000000000E+00, 5.78050E-01, 5.50000E-03,0,
 8.050000000E+00, 5.71650E-01, 6.00000E-03,0,
 8.100000000E+00, 5.63900E-01, 5.50000E-03,0,
 8.150000000E+00, 5.69100E-01, 5.50000E-03,0,
 8.200000000E+00, 5.85850E-01, 4.93050E+00,0,
 8.250000000E+00, 6.06300E-01, 6.00000E-03,0,
 8.300000000E+00, 6.02800E-01, 5.50000E-03,0,
 8.350000000E+00, 5.92500E-01, 5.50000E-03,0,
 8.400000000E+00, 5.87900E-01, 4.93050E+00,0,
 8.450000000E+00, 5.74850E-01, 4.93050E+00,0,
 8.500000000E+00, 5.69250E-01, 6.00000E-03,0,
 8.550000000E+00, 5.80300E-01, 5.50000E-03,0,
 8.600000000E+00, 5.92650E-01, 4.93050E+00,0,
 8.650000000E+00, 5.88850E-01, 5.50000E-03,0,
 8.700000000E+00, 5.49900E-01, 6.00000E-03,0,
 8.750000000E+00, 5.27000E-01, 5.50000E-03,0,
 8.800000000E+00, 5.35500E-01, 4.93000E+00,0,
 8.850000000E+00, 5.38550E-01, 4.93050E+00,0,
 8.900000000E+00, 5.52450E-01, 5.50000E-03,0,
 8.950000000E+00, 5.71700E-01, 5.50000E-03,0,
 9.000000000E+00, 5.53150E-01, 5.50000E-03,0,
 9.050000000E+00, 5.85950E-01, 4.93050E+00,0,
 9.100000000E+00, 5.83050E-01, 4.93050E+00,0,
 9.150000000E+00, 5.86700E-01, 5.50000E-03,0,
 9.200000000E+00, 5.89650E-01, 5.50000E-03,0,
 9.250000000E+00, 5.91350E-01, 5.50000E-03,0,
 9.300000000E+00, 5.86050E-01, 5.50000E-03,0,
 9.350000000E+00, 5.65850E-01, 4.93050E+00,0,
 9.400000000E+00, 5.39200E-01, 6.00000E-03,0,
 9.450000000E+00, 5.04400E-01, 5.50000E-03,0,
 9.500000000E+00, 4.73850E-01, 5.50000E-03,0,
 9.550000000E+00, 4.96750E-01, 4.93050E+00,0,
 9.600000000E+00, 4.15200E-01, 4.93050E+00,0,
 9.650000000E+00, 4.78300E-01, 5.50000E-03,0,
 9.700000000E+00, 5.48800E-01, 5.50000E-03,0,
 9.750000000E+00, 5.75600E-01, 6.00000E-03,0,
 9.800000000E+00, 5.69750E-01, 4.93050E+00,0,
 9.850000000E+00, 5.48900E-01, 5.50000E-03,0,
 9.900000000E+00, 5.29550E-01, 5.50000E-03,0,
 9.950000000E+00, 5.51700E-01, 5.50000E-03,0,
 1.000000000E+01, 5.55300E-01, 4.93100E+00,0,
 1.005000000E+01, 5.74800E-01, 5.50000E-03,0,
 1.010000000E+01, 5.87550E-01, 5.50000E-03,0,
 1.015000000E+01, 5.91350E-01, 6.00000E-03,0,
 1.020000000E+01, 6.02200E-01, 4.93000E+00,0,
 1.025000000E+01, 6.04700E-01, 5.50000E-03,0,
 1.030000000E+01, 5.98600E-01, 5.50000E-03,0,
 1.035000000E+01, 5.88500E-01, 6.00000E-03,0,
 1.040000000E+01, 5.71150E-01, 4.93050E+00,0,
 1.045000000E+01, 5.51350E-01, 5.50000E-03,0,
 1.050000000E+01, 5.41800E-01, 5.50000E-03,0,
 1.055000000E+01, 5.62800E-01, 5.50000E-03,0,
 1.060000000E+01, 5.78150E-01, 1.15350E+00,0,
 1.065000000E+01, 5.84350E-01, 4.93050E+00,0,
 1.070000000E+01, 5.92150E-01, 5.50000E-03,0,
 1.075000000E+01, 5.90250E-01, 6.00000E-03,0,
 1.080000000E+01, 5.92250E-01, 5.50000E-03,0,
 1.085000000E+01, 5.86300E-01, 4.93100E+00,0,
 1.090000000E+01, 5.69650E-01, 5.50000E-03,0,
 1.095000000E+01, 5.20150E-01, 5.50000E-03,0,
 1.100000000E+01, 5.56550E-01, 6.00000E-03,0,
 1.105000000E+01, 5.58450E-01, 5.50000E-03,0,
 1.110000000E+01, 5.51300E-01, 4.93050E+00,0,
 1.115000000E+01, 5.85350E-01, 5.50000E-03,0,
 1.120000000E+01, 5.77400E-01, 6.00000E-03,0,
 1.125000000E+01, 5.80450E-01, 5.50000E-03,0,
 1.130000000E+01, 5.75800E-01, 4.93050E+00,0,
 1.135000000E+01, 5.51350E-01, 6.00000E-03,0,
 1.140000000E+01, 5.18950E-01, 5.50000E-03,0,
 1.145000000E+01, 4.86200E-01, 5.50000E-03,0,
 1.150000000E+01, 4.88150E-01, 4.93050E+00,0,
 1.155000000E+01, 5.14000E-01, 5.50000E-03,0,
 1.160000000E+01, 5.28750E-01, 5.50000E-03,0,
 1.165000000E+01, 5.37600E-01, 8.50000E-02,0,
 1.170000000E+01, 5.63900E-01, 5.50000E-03,0,
 1.175000000E+01, 5.78000E-01, 5.50000E-03,0,
 1.180000000E+01, 5.91700E-01, 5.50000E-03,0,
 1.185000000E+01, 5.97650E-01, 4.93050E+00,0,
 1.190000000E+01, 5.91350E-01, 4.93050E+00,0,
 1.195000000E+01, 5.79250E-01, 5.50000E-03,0,
 1.200000000E+01, 5.42250E-01, 5.50000E-03,0,
 1.205000000E+01, 4.81650E-01, 4.93050E+00,0,
 1.210000000E+01, 4.12350E-01, 5.50000E-03,0,
 1.215000000E+01, 3.97200E-01, 5.50000E-03,0,
 1.220000000E+01, 4.60500E-01, 6.00000E-03,0,
 1.225000000E+01, 4.95250E-01, 4.93050E+00,0,
 1.230000000E+01, 5.32100E-01, 5.50000E-03,0,
 1.235000000E+01, 5.57950E-01, 5.50000E-03,0,
 1.240000000E+01, 5.59600E-01, 6.00000E-03,0,
 1.245000000E+01, 5.12800E-01, 4.93050E+00,0,
 1.250000000E+01, 4.14450E-01, 5.50000E-03,0,
 1.255000000E+01, 3.87000E-01, 5.50000E-03,0,
 1.260000000E+01, 4.75250E-01, 4.93050E+00,0,
 1.265000000E+01, 5.29150E-01, 5.50000E-03,0,
 1.270000000E+01, 5.22600E-01, 5.50000E-03,0,
 1.275000000E+01, 4.78650E-01, 5.50000E-03,0,
 1.280000000E+01, 4.62950E-01, 4.93050E+00,0,
 1.285000000E+01, 4.87450E-01, 6.00000E-03,0,
 1.290000000E+01, 5.00350E-01, 5.50000E-03,0,
 1.295000000E+01, 5.61900E-01, 4.93050E+00,0,
 1.300000000E+01, 5.69100E-01, 1.46050E+00,0,
 1.305000000E+01, 5.69300E-01, 5.50000E-03,0,
 1.310000000E+01, 5.85500E-01, 5.50000E-03,0,
 1.315000000E+01, 5.81500E-01, 4.93050E+00,0,
 1.320000000E+01, 5.90500E-01, 5.50000E-03,0,
 1.325000000E+01, 5.93900E-01, 5.50000E-03,0,
 1.330000000E+01, 5.85250E-01, 4.93050E+00,0,
 1.335000000E+01, 5.77900E-01, 6.00000E-03,0,
 1.340000000E+01, 5.68550E-01, 5.50000E-03,0,
 1.345000000E+01, 5.31100E-01, 4.93050E+00,0,
 1.350000000E+01, 5.15700E-01, 5.50000E-03,0,
 1.355000000E+01, 5.17000E-01, 5.50000E-03,0,
 1.360000000E+01, 5.50400E-01, 4.88050E+00,0,
 1.365000000E+01, 5.74450E-01, 5.50000E-03,0,
 1.370000000E+01, 5.52600E-01, 5.50000E-03,0,
 1.375000000E+01, 5.21800E-01, 5.50000E-03,0,
 1.380000000E+01, 5.28250E-01, 5.50000E-03,0,
 1.385000000E+01, 5.07350E-01, 5.50000E-03,0,
 1.390000000E+01, 5.38100E-01, 4.93050E+00,0,
 1.395000000E+01, 5.22000E-01, 5.50000E-03,0,
 1.400000000E+01, 5.40400E-01, 5.50000E-03,0,
 1.405000000E+01, 5.59950E-01, 4.93050E+00,0,
 1.410000000E+01, 5.86750E-01, 5.50000E-03,0,
 1.415000000E+01, 6.13650E-01, 5.50000E-03,0,
 1.420000000E+01, 6.13450E-01, 5.50000E-03,0,
 1.425000000E+01, 5.92700E-01, 4.93050E+00,0,
 1.430000000E+01, 5.61600E-01, 5.50000E-03,0,
 1.435000000E+01, 5.57200E-01, 5.50000E-03,0,
 1.440000000E+01, 5.64800E-01, 5.50000E-03,0,
 1.445000000E+01, 5.90650E-01, 5.50000E-03,0,
 1.450000000E+01, 6.00100E-01, 5.50000E-03,0,
 1.455000000E+01, 6.08800E-01, 6.00000E-03,0,
 1.460000000E+01, 6.03400E-01, 4.93050E+00,0,
 1.465000000E+01, 5.77750E-01, 5.50000E-03,0,
 1.470000000E+01, 5.74300E-01, 5.50000E-03,0,
 1.475000000E+01, 5.86000E-01, 5.50000E-03,0,
 1.480000000E+01, 5.87850E-01, 4.93050E+00,0,
 1.485000000E+01, 5.85950E-01, 5.50000E-03,0,
 1.490000000E+01, 5.87650E-01, 5.50000E-03,0,
 1.495000000E+01, 5.78600E-01, 5.50000E-03,0,
 1.500000000E+01, 5.68100E-01, 4.93050E+00,0,
 1.505000000E+01, 5.66550E-01, 5.50000E-03,0,
 1.510000000E+01, 5.64750E-01, 5.50000E-03,0,
 1.515000000E+01, 5.64050E-01, 5.50000E-03,0,
 1.520000000E+01, 5.50700E-01, 4.93050E+00,0,
 1.525000000E+01, 4.73250E-01, 5.50000E-03,0,
 1.530000000E+01, 5.01850E-01, 5.50000E-03,0,
 1.535000000E+01, 5.18500E-01, 5.50000E-03,0,
 1.540000000E+01, 5.64850E-01, 4.93050E+00,0,
 1.545000000E+01, 5.89000E-01, 4.93050E+00,0,
 1.550000000E+01, 6.00000E-01, 5.50000E-03,0,
 1.555000000E+01, 6.00000E-01, 5.50000E-03,0,
 1.560000000E+01, 6.08750E-01, 4.93050E+00,0,
 1.565000000E+01, 6.15100E-01, 1.75000E-02,0,
 1.570000000E+01, 6.18650E-01, 5.50000E-03,0,
 1.575000000E+01, 6.27850E-01, 6.00000E-03,0,
 1.580000000E+01, 6.29700E-01, 4.93050E+00,0,
 1.585000000E+01, 6.35700E-01, 4.93050E+00,0,
 1.590000000E+01, 6.19400E-01, 5.50000E-03,0,
 1.595000000E+01, 6.10850E-01, 6.00000E-03,0,
 1.600000000E+01, 6.03800E-01, 6.00000E-03,0,
 1.605000000E+01, 6.08000E-01, 5.50000E-03,0,
 1.610000000E+01, 6.13850E-01, 6.00000E-03,0,
 1.615000000E+01, 6.07300E-01, 6.00000E-03,0,
 1.620000000E+01, 6.04800E-01, 4.93000E+00,0,
 1.625000000E+01, 5.97200E-01, 4.93050E+00,0,
 1.630000000E+01, 6.02150E-01, 5.50000E-03,0,
 1.635000000E+01, 6.02450E-01, 6.00000E-03,0,
 1.640000000E+01, 5.93450E-01, 4.93050E+00,0,
 1.645000000E+01, 5.99500E-01, 4.93050E+00,0,
 1.650000000E+01, 5.93000E-01, 5.50000E-03,0,
 1.655000000E+01, 5.83250E-01, 5.50000E-03,0,
 1.660000000E+01, 5.79100E-01, 5.50000E-03,0,
 1.665000000E+01, 5.76900E-01, 4.93050E+00,0,
 1.670000000E+01, 5.82450E-01, 5.50000E-03,0,
 1.675000000E+01, 5.71500E-01, 5.50000E-03,0,
 1.680000000E+01, 5.54650E-01, 5.50000E-03,0,
 1.685000000E+01, 5.50700E-01, 4.93050E+00,0,
 1.690000000E+01, 5.76750E-01, 5.50000E-03,0,
 1.695000000E+01, 5.81350E-01, 6.00000E-03,0,
 1.700000000E+01, 5.82950E-01, 5.50000E-03,0,
 1.705000000E+01, 5.84200E-01, 4.93050E+00,0,
 1.710000000E+01, 5.60750E-01, 5.50000E-03,0,
 1.715000000E+01, 5.54350E-01, 5.50000E-03,0,
 1.720000000E+01, 5.28100E-01, 5.50000E-03,0,
 1.725000000E+01, 5.36700E-01, 4.93050E+00,0,
 1.730000000E+01, 5.16450E-01, 6.00000E-03,0,
 1.735000000E+01, 5.10950E-01, 5.50000E-03,0,
 1.740000000E+01, 5.44650E-01, 5.50000E-03,0,
 1.745000000E+01, 5.30900E-01, 4.93050E+00,0,
 1.750000000E+01, 5.56200E-01, 5.50000E-03,0,
 1.755000000E+01, 5.54350E-01, 6.00000E-03,0,
 1.760000000E+01, 5.30300E-01, 6.00000E-03,0,
 1.765000000E+01, 5.15850E-01, 4.93050E+00,0,
 1.770000000E+01, 4.79250E-01, 5.50000E-03,0,
 1.775000000E+01, 4.86150E-01, 5.50000E-03,0,
 1.780000000E+01, 4.78150E-01, 5.50000E-03,0,
 1.785000000E+01, 5.28050E-01, 4.93050E+00,0,
 1.790000000E+01, 5.57950E-01, 5.50000E-03,0,
 1.795000000E+01, 5.70150E-01, 5.50000E-03,0,
 1.800000000E+01, 5.76500E-01, 6.00000E-03,0,
 1.805000000E+01, 5.76150E-01, 4.93100E+00,0,
 1.810000000E+01, 5.83200E-01, 5.50000E-03,0,
 1.815000000E+01, 5.98150E-01, 6.00000E-03,0,
 1.820000000E+01, 5.93950E-01, 5.50000E-03,0,
 1.825000000E+01, 5.71950E-01, 4.93050E+00,0,
 1.830000000E+01, 5.34250E-01, 6.00000E-03,0,
 1.835000000E+01, 5.03100E-01, 6.00000E-03,0,
 1.840000000E+01, 4.68100E-01, 5.50000E-03,0,
 1.845000000E+01, 5.54150E-01, 6.00000E-03,0,
 1.850000000E+01, 5.48100E-01, 6.00000E-03,0,
 1.855000000E+01, 5.58000E-01, 5.50000E-03,0,
 1.860000000E+01, 5.50850E-01, 4.93050E+00,0,
 1.865000000E+01, 5.77200E-01, 4.93050E+00,0,
 1.870000000E+01, 5.89700E-01, 6.00000E-03,0,
 1.875000000E+01, 5.99000E-01, 5.50000E-03,0,
 1.880000000E+01, 6.02350E-01, 4.93100E+00,0,
 1.885000000E+01, 6.02950E-01, 6.00000E-03,0,
 1.890000000E+01, 5.92200E-01, 6.00000E-03,0,
 1.895000000E+01, 5.82650E-01, 6.00000E-03,0,
 1.900000000E+01, 5.76100E-01, 4.93050E+00,0,
 1.905000000E+01, 5.56200E-01, 5.50000E-03,0,
 1.910000000E+01, 5.53300E-01, 5.50000E-03,0,
 1.915000000E+01, 5.03700E-01, 5.50000E-03,0,
 1.920000000E+01, 4.67400E-01, 4.93050E+00,0,
 1.925000000E+01, 3.96550E-01, 5.50000E-03,0,
 1.930000000E+01, 4.45500E-01, 5.50000E-03,0,
 1.935000000E+01, 5.08950E-01, 5.50000E-03,0,
 1.940000000E+01, 5.51250E-01, 4.93050E+00,0,
 1.945000000E+01, 5.80750E-01, 5.50000E-03,0,
 1.950000000E+01, 5.88150E-01, 5.50000E-03,0,
 1.955000000E+01, 5.71000E-01, 4.93100E+00,0,
 1.960000000E+01, 5.24800E-01, 4.45500E-01,0,
 1.965000000E+01, 4.85550E-01, 5.50000E-03,0,
 1.970000000E+01, 4.74650E-01, 5.50000E-03,0,
 1.975000000E+01, 4.60650E-01, 4.93050E+00,0,
 1.980000000E+01, 4.73450E-01, 5.50000E-03,0,
 1.985000000E+01, 4.86450E-01, 6.00000E-03,0,
 1.990000000E+01, 4.98150E-01, 5.50000E-03,0,
 1.995000000E+01, 5.37200E-01, 4.93050E+00,0,
 2.000000000E+01, 5.62850E-01, 5.50000E-03,0,
 2.005000000E+01, 5.85900E-01, 5.50000E-03,0,
 2.010000000E+01, 5.89400E-01, 4.93050E+00,0,
 2.015000000E+01, 5.99600E-01, 5.50000E-03,0,
 2.020000000E+01, 5.97950E-01, 6.00000E-03,0,
 2.025000000E+01, 6.02200E-01, 5.50000E-03,0,
 2.030000000E+01, 6.06450E-01, 4.93050E+00,0,
 2.035000000E+01, 6.12050E-01, 6.00000E-03,0,
 2.040000000E+01, 6.19300E-01, 5.50000E-03,0,
 2.045000000E+01, 6.21850E-01, 5.50000E-03,0,
 2.050000000E+01, 6.19900E-01, 4.93050E+00,0,
 2.055000000E+01, 6.10050E-01, 5.50000E-03,0,
 2.060000000E+01, 5.99750E-01, 5.50000E-03,0,
 2.065000000E+01, 6.09800E-01, 5.50000E-03,0,
 2.070000000E+01, 6.11600E-01, 4.93050E+00,0,
 2.075000000E+01, 6.21100E-01, 5.50000E-03,0,
 2.080000000E+01, 6.33350E-01, 5.50000E-03,0,
 2.085000000E+01, 6.37700E-01, 5.50000E-03,0,
 2.090000000E+01, 6.36900E-01, 4.93050E+00,0,
 2.095000000E+01, 6.21250E-01, 5.50000E-03,0,
 2.100000000E+01, 6.17150E-01, 5.50000E-03,0,
 2.105000000E+01, 5.72250E-01, 5.50000E-03,0,
 2.110000000E+01, 5.53550E-01, 4.93050E+00,0,
 2.115000000E+01, 5.66900E-01, 5.50000E-03,0,
 2.120000000E+01, 5.87400E-01, 5.50000E-03,0,
 2.125000000E+01, 6.09250E-01, 5.50000E-03,0,
 2.130000000E+01, 6.21300E-01, 4.93050E+00,0,
 2.135000000E+01, 6.26100E-01, 5.50000E-03,0,
 2.140000000E+01, 6.30250E-01, 5.50000E-03,0,
 2.145000000E+01, 6.23950E-01, 3.20650E+00,0,
 2.150000000E+01, 6.17200E-01, 5.50000E-03,0,
 2.155000000E+01, 6.21300E-01, 6.00000E-03,0,
 2.160000000E+01, 6.47150E-01, 6.00000E-03,0,
 2.165000000E+01, 6.47450E-01, 2.13950E+00,0,
 2.170000000E+01, 6.36600E-01, 4.93050E+00,0,
 2.175000000E+01, 6.37850E-01, 5.50000E-03,0,
 2.180000000E+01, 6.19550E-01, 5.50000E-03,0,
 2.185000000E+01, 6.21150E-01, 4.93050E+00,0,
 2.190000000E+01, 6.30150E-01, 4.93100E+00,0,
 2.195000000E+01, 6.19500E-01, 5.50000E-03,0,
 2.200000000E+01, 6.18250E-01, 5.50000E-03,0,
 2.205000000E+01, 6.23200E-01, 6.00000E-03,0,
 2.210000000E+01, 6.21100E-01, 4.93050E+00,0,
 2.215000000E+01, 6.33900E-01, 5.50000E-03,0,
 2.220000000E+01, 6.39550E-01, 6.00000E-03,0,
 2.225000000E+01, 6.47900E-01, 5.50000E-03,0,
 2.230000000E+01, 6.43900E-01, 4.92950E+00,0,
 2.235000000E+01, 6.40400E-01, 5.50000E-03,0,
 2.240000000E+01, 6.35250E-01, 6.00000E-03,0,
 2.245000000E+01, 6.20100E-01, 4.93050E+00,0,
 2.250000000E+01, 6.12700E-01, 4.93050E+00,0,
 2.255000000E+01, 6.00800E-01, 5.50000E-03,0,
 2.260000000E+01, 5.76300E-01, 5.50000E-03,0,
 2.265000000E+01, 5.71900E-01, 4.93050E+00,0,
 2.270000000E+01, 5.91250E-01, 5.50000E-03,0,
 2.275000000E+01, 6.13000E-01, 6.00000E-03,0,
 2.280000000E+01, 6.16850E-01, 6.00000E-03,0,
 2.285000000E+01, 6.19150E-01, 4.93100E+00,0,
 2.290000000E+01, 6.04350E-01, 5.50000E-03,0,
 2.295000000E+01, 6.14700E-01, 5.50000E-03,0,
 2.300000000E+01, 6.03950E-01, 5.50000E-03,0,
 2.305000000E+01, 6.09450E-01, 4.93050E+00,0,
 2.310000000E+01, 6.21550E-01, 5.50000E-03,0,
 2.315000000E+01, 6.23400E-01, 5.50000E-03,0,
 2.320000000E+01, 6.24000E-01, 5.50000E-03,0,
 2.325000000E+01, 6.26750E-01, 5.50000E-03,0,
 2.330000000E+01, 6.31750E-01, 4.93050E+00,0,
 2.335000000E+01, 6.32700E-01, 6.00000E-03,0,
 2.340000000E+01, 6.41600E-01, 5.50000E-03,0,
 2.345000000E+01, 6.10950E-01, 5.50000E-03,0,
 2.350000000E+01, 6.38350E-01, 4.93050E+00,0,
 2.355000000E+01, 6.40200E-01, 5.50000E-03,0,
 2.360000000E+01, 6.41550E-01, 5.50000E-03,0,
 2.365000000E+01, 6.49300E-01, 5.50000E-03,0,
 2.370000000E+01, 6.62450E-01, 4.93050E+00,0,
 2.375000000E+01, 6.67800E-01, 4.93050E+00,0,
 2.380000000E+01, 6.66050E-01, 6.00000E-03,0,
 2.385000000E+01, 6.56650E-01, 5.50000E-03,0,
 2.390000000E+01, 6.35350E-01, 5.50000E-03,0,
 2.395000000E+01, 6.18100E-01, 4.93050E+00,0,
 2.400000000E+01, 6.22700E-01, 6.00000E-03,0,
 2.405000000E+01, 6.19400E-01, 5.50000E-03,0,
 2.410000000E+01, 6.31400E-01, 5.50000E-03,0,
 2.415000000E+01, 6.23200E-01, 4.93050E+00,0,
 2.420000000E+01, 6.31750E-01, 5.50000E-03,0,
 2.425000000E+01, 6.48650E-01, 5.50000E-03,0,
 2.430000000E+01, 6.59650E-01, 4.93050E+00,0,
 2.435000000E+01, 6.64450E-01, 4.90800E+00,0,
 2.440000000E+01, 6.62450E-01, 5.50000E-03,0,
 2.445000000E+01, 6.51500E-01, 5.50000E-03,0,
 2.450000000E+01, 6.38300E-01, 4.93050E+00,0,
 2.455000000E+01, 6.32950E-01, 5.50000E-03,0,
 2.460000000E+01, 6.46900E-01, 5.50000E-03,0,
 2.465000000E+01, 6.39900E-01, 5.50000E-03,0,
 2.470000000E+01, 6.43750E-01, 4.93050E+00,0,
 2.475000000E+01, 6.38450E-01, 5.50000E-03,0,
 2.480000000E+01, 6.26150E-01, 5.50000E-03,0,
 2.485000000E+01, 6.29050E-01, 5.50000E-03,0,
 2.490000000E+01, 6.33750E-01, 4.93050E+00,0,
 2.495000000E+01, 6.39750E-01, 5.50000E-03,0,
 2.500000000E+01, 6.19800E-01, 6.00000E-03,0,
 2.505000000E+01, 5.93700E-01, 5.50000E-03,0,
 2.510000000E+01, 5.53100E-01, 4.93050E+00,0,
 2.515000000E+01, 5.49900E-01, 5.50000E-03,0,
 2.520000000E+01, 5.43200E-01, 5.50000E-03,0,
 2.525000000E+01, 5.57050E-01, 5.50000E-03,0,
 2.530000000E+01, 5.74600E-01, 4.93050E+00,0,
 2.535000000E+01, 5.78250E-01, 6.00000E-03,0,
 2.540000000E+01, 5.60950E-01, 6.00000E-03,0,
 2.545000000E+01, 5.97850E-01, 4.93050E+00,0,
 2.550000000E+01, 6.04700E-01, 5.50000E-03,0,
 2.555000000E+01, 6.06900E-01, 6.00000E-03,0,
 2.560000000E+01, 6.25100E-01, 5.50000E-03,0,
 2.565000000E+01, 6.02750E-01, 4.93050E+00,0,
 2.570000000E+01, 5.90650E-01, 5.50000E-03,0,
 2.575000000E+01, 5.84700E-01, 5.50000E-03,0,
 2.580000000E+01, 5.81300E-01, 4.93050E+00,0,
 2.585000000E+01, 5.73900E-01, 5.50000E-03,0,
 2.590000000E+01, 5.77750E-01, 5.50000E-03,0,
 2.595000000E+01, 5.87400E-01, 4.93050E+00,0,
 2.600000000E+01, 5.86950E-01, 5.50000E-03,0,
 2.605000000E+01, 5.46750E-01, 6.00000E-03,0,
 2.610000000E+01, 6.02900E-01, 5.50000E-03,0,
 2.615000000E+01, 5.94650E-01, 4.93050E+00,0,
 2.620000000E+01, 5.92650E-01, 5.50000E-03,0,
 2.625000000E+01, 5.99450E-01, 5.50000E-03,0,
 2.630000000E+01, 6.04400E-01, 5.50000E-03,0,
 2.635000000E+01, 6.16300E-01, 4.93050E+00,0,
 2.640000000E+01, 6.26450E-01, 5.50000E-03,0,
 2.645000000E+01, 6.31800E-01, 6.00000E-03,0,
 2.650000000E+01, 6.39450E-01, 4.93050E+00,0,
 2.655000000E+01, 6.43700E-01, 5.50000E-03,0,
 2.660000000E+01, 6.54100E-01, 5.50000E-03,0,
 2.665000000E+01, 6.46150E-01, 5.50000E-03,0,
 2.670000000E+01, 6.32450E-01, 4.93050E+00,0,
 2.675000000E+01, 6.19150E-01, 5.50000E-03,0,
 2.680000000E+01, 6.15000E-01, 6.00000E-03,0,
 2.685000000E+01, 6.09900E-01, 5.50000E-03,0,
 2.690000000E+01, 6.07450E-01, 4.93050E+00,0,
 2.695000000E+01, 6.21200E-01, 5.50000E-03,0,
 2.700000000E+01, 6.14950E-01, 6.00000E-03,0,
 2.705000000E+01, 6.09000E-01, 4.93050E+00,0,
 2.710000000E+01, 6.05200E-01, 4.93050E+00,0,
 2.715000000E+01, 5.39200E-01, 5.50000E-03,0,
 2.720000000E+01, 6.07100E-01, 5.50000E-03,0,
 2.725000000E+01, 6.07050E-01, 4.93050E+00,0,
 2.730000000E+01, 5.88100E-01, 5.50000E-03,0,
 2.735000000E+01, 6.20050E-01, 6.00000E-03,0,
 2.740000000E+01, 6.35050E-01, 5.50000E-03,0,
 2.745000000E+01, 6.53650E-01, 4.93050E+00,0,
 2.750000000E+01, 6.37550E-01, 6.00000E-03,0,
 2.755000000E+01, 6.59900E-01, 5.50000E-03,0,
 2.760000000E+01, 6.46100E-01, 6.00000E-03,0,
 2.765000000E+01, 6.41000E-01, 4.93050E+00,0,
 2.770000000E+01, 6.52250E-01, 5.50000E-03,0,
 2.775000000E+01, 6.51350E-01, 5.50000E-03,0,
 2.780000000E+01, 6.42450E-01, 6.00000E-03,0,
 2.785000000E+01, 6.37900E-01, 4.93050E+00,0,
 2.790000000E+01, 6.25100E-01, 6.00000E-03,0,
 2.795000000E+01, 6.10150E-01, 5.50000E-03,0,
 2.800000000E+01, 6.32500E-01, 4.93050E+00,0,
 2.805000000E+01, 6.47000E-01, 5.50000E-03,0,
 2.810000000E+01, 6.46200E-01, 5.50000E-03,0,
 2.815000000E+01, 4.75300E-01, 5.50000E-03,0,
 2.820000000E+01, 6.29950E-01, 4.93050E+00,0,
 2.825000000E+01, 6.34900E-01, 5.50000E-03,0,
 2.830000000E+01, 6.32250E-01, 5.50000E-03,0,
 2.835000000E+01, 6.09850E-01, 6.00000E-03,0,
 2.840000000E+01, 6.08400E-01, 4.93050E+00,0,
 2.845000000E+01, 6.12800E-01, 6.00000E-03,0,
 2.850000000E+01, 6.04900E-01, 5.50000E-03,0,
 2.855000000E+01, 6.00350E-01, 6.00000E-03,0,
 2.860000000E+01, 5.99150E-01, 4.93050E+00,0,
 2.865000000E+01, 6.21400E-01, 4.93050E+00,0,
 2.870000000E+01, 6.14650E-01, 5.50000E-03,0,
 2.875000000E+01, 6.19850E-01, 5.50000E-03,0,
 2.880000000E+01, 6.16950E-01, 4.93050E+00,0,
 2.885000000E+01, 6.14100E-01, 4.93050E+00,0,
 2.890000000E+01, 6.11400E-01, 6.00000E-03,0,
 2.895000000E+01, 6.10750E-01, 6.00000E-03,0,
 2.900000000E+01, 6.10550E-01, 5.50000E-03,0,
 2.905000000E+01, 5.99000E-01, 4.93050E+00,0,
 2.910000000E+01, 6.24700E-01, 5.50000E-03,0,
 2.915000000E+01, 6.29550E-01, 5.50000E-03,0,
 2.920000000E+01, 6.23650E-01, 5.50000E-03,0,
 2.925000000E+01, 6.24100E-01, 4.93050E+00,0,
 2.930000000E+01, 6.42750E-01, 6.00000E-03,0,
 2.935000000E+01, 6.30900E-01, 6.00000E-03,0,
 2.940000000E+01, 6.36800E-01, 5.50000E-03,0,
 2.945000000E+01, 6.36050E-01, 5.50000E-03,0,
 2.950000000E+01, 6.33850E-01, 4.93050E+00,0,
 2.955000000E+01, 6.29900E-01, 5.50000E-03,0,
 2.960000000E+01, 6.21550E-01, 5.50000E-03,0,
 2.965000000E+01, 6.17350E-01, 5.50000E-03,0,
 2.970000000E+01, 6.11600E-01, 4.93050E+00,0,
 2.975000000E+01, 6.43650E-01, 6.00000E-03,0,
 2.980000000E+01, 6.19100E-01, 5.50000E-03,0,
 2.985000000E+01, 6.07850E-01, 6.00000E-03,0,
 2.990000000E+01, 5.94050E-01, 5.50000E-03,0,
 2.995000000E+01, 6.22800E-01, 4.93050E+00,0,
 3.000000000E+01, 6.18300E-01, 5.50000E-03,0,
 3.005000000E+01, 6.14550E-01, 5.50000E-03,0,
 3.010000000E+01, 6.16050E-01, 5.50000E-03,0,
 3.015000000E+01, 5.83350E-01, 6.00000E-03,0,
 3.020000000E+01, 5.44350E-01, 4.93100E+00,0,
 3.025000000E+01, 5.06650E-01, 5.50000E-03,0,
 3.030000000E+01, 5.04750E-01, 5.50000E-03,0,
 3.035000000E+01, 5.27550E-01, 6.00000E-03,0,
 3.040000000E+01, 5.25050E-01, 5.50000E-03,0,
 3.045000000E+01, 5.25500E-01, 4.93050E+00,0,
 3.050000000E+01, 5.18350E-01, 5.50000E-03,0,
 3.055000000E+01, 5.40400E-01, 5.50000E-03,0,
 3.060000000E+01, 5.07000E-01, 5.50000E-03,0,
 3.065000000E+01, 5.13450E-01, 4.93050E+00,0,
 3.070000000E+01, 4.90550E-01, 5.50000E-03,0,
 3.075000000E+01, 4.76300E-01, 5.50000E-03,0,
 3.080000000E+01, 4.90750E-01, 5.50000E-03,0,
 3.085000000E+01, 5.54700E-01, 4.93000E+00,0,
 3.090000000E+01, 5.82600E-01, 5.50000E-03,0,
 3.095000000E+01, 6.21600E-01, 5.50000E-03,0,
 3.100000000E+01, 4.44850E-01, 5.50000E-03,0,
 3.105000000E+01, 6.04800E-01, 5.50000E-03,0,
 3.110000000E+01, 6.23050E-01, 4.93050E+00,0,
 3.115000000E+01, 6.10000E-01, 5.50000E-03,0,
 3.120000000E+01, 6.17750E-01, 5.50000E-03,0,
 3.125000000E+01, 6.19700E-01, 5.50000E-03,0,
 3.130000000E+01, 6.20400E-01, 4.93050E+00,0,
 3.135000000E+01, 6.13250E-01, 4.93050E+00,0,
 3.140000000E+01, 6.22950E-01, 5.50000E-03,0,
 3.145000000E+01, 6.26400E-01, 5.50000E-03,0,
 3.150000000E+01, 6.13000E-01, 5.50000E-03,0,
 3.155000000E+01, 6.19000E-01, 4.93050E+00,0,
 3.160000000E+01, 6.38550E-01, 5.50000E-03,0,
 3.165000000E+01, 6.05550E-01, 5.50000E-03,0,
 3.170000000E+01, 6.42000E-01, 5.50000E-03,0,
 3.175000000E+01, 6.36600E-01, 4.93000E+00,0,
 3.180000000E+01, 6.29550E-01, 5.50000E-03,0,
 3.185000000E+01, 6.16650E-01, 5.50000E-03,0,
 3.190000000E+01, 6.05950E-01, 5.50000E-03,0,
 3.195000000E+01, 6.02850E-01, 3.45350E+00,0,
 3.200000000E+01, 6.10350E-01, 4.93050E+00,0,
 3.205000000E+01, 6.22700E-01, 6.00000E-03,0,
 3.210000000E+01, 5.94750E-01, 5.50000E-03,0,
 3.215000000E+01, 5.86650E-01, 5.50000E-03,0,
 3.220000000E+01, 5.86750E-01, 4.93050E+00,0,
 3.225000000E+01, 5.75200E-01, 5.50000E-03,0,
 3.230000000E+01, 5.88050E-01, 6.00000E-03,0,
 3.235000000E+01, 5.88200E-01, 5.50000E-03,0,
 3.240000000E+01, 5.92250E-01, 4.93050E+00,0,
 3.245000000E+01, 2.51150E-01, 5.50000E-03,0,
 3.250000000E+01, 5.91100E-01, 5.50000E-03,0,
 3.255000000E+01, 5.76450E-01, 6.00000E-03,0,
 3.260000000E+01, 5.78100E-01, 4.93050E+00,0,
 3.265000000E+01, 5.82850E-01, 6.00000E-03,0,
 3.270000000E+01, 5.49150E-01, 6.00000E-03,0,
 3.275000000E+01, 5.86350E-01, 5.50000E-03,0,
 3.280000000E+01, 5.88200E-01, 4.93100E+00,0,
 3.285000000E+01, 6.00750E-01, 5.50000E-03,0,
 3.290000000E+01, 6.04000E-01, 5.50000E-03,0,
 3.295000000E+01, 6.01450E-01, 4.93050E+00,0,
 3.300000000E+01, 5.92450E-01, 5.50000E-03,0,
 3.305000000E+01, 5.39150E-01, 5.50000E-03,0,
 3.310000000E+01, 5.95050E-01, 6.00000E-03,0,
 3.315000000E+01, 5.82600E-01, 4.93050E+00,0,
 3.320000000E+01, 5.88150E-01, 5.50000E-03,0,
 3.325000000E+01, 6.01050E-01, 6.00000E-03,0,
 3.330000000E+01, 6.05250E-01, 4.93050E+00,0,
 3.335000000E+01, 5.92550E-01, 4.93050E+00,0,
 3.340000000E+01, 5.84150E-01, 6.00000E-03,0,
 3.345000000E+01, 5.72650E-01, 5.50000E-03,0,
 3.350000000E+01, 5.74550E-01, 5.50000E-03,0,
 3.355000000E+01, 5.69900E-01, 4.93050E+00,0,
 3.360000000E+01, 5.89050E-01, 6.00000E-03,0,
 3.365000000E+01, 6.08850E-01, 5.50000E-03,0,
 3.370000000E+01, 6.15550E-01, 6.00000E-03,0,
 3.375000000E+01, 6.12950E-01, 4.93050E+00,0,
 3.380000000E+01, 5.91150E-01, 4.93100E+00,0,
 3.385000000E+01, 6.11600E-01, 5.50000E-03,0,
 3.390000000E+01, 6.14400E-01, 5.50000E-03,0,
 3.395000000E+01, 6.14500E-01, 4.93050E+00,0,
 3.400000000E+01, 6.30000E-01, 5.50000E-03,0,
 3.405000000E+01, 5.70900E-01, 5.50000E-03,0,
 3.410000000E+01, 6.20450E-01, 4.93050E+00,0,
 3.415000000E+01, 6.06200E-01, 6.00000E-03,0,
 3.420000000E+01, 5.67150E-01, 5.50000E-03,0,
 3.425000000E+01, 6.08450E-01, 5.50000E-03,0,
 3.430000000E+01, 6.06400E-01, 4.93050E+00,0,
 3.435000000E+01, 5.92450E-01, 5.50000E-03,0,
 3.440000000E+01, 6.00850E-01, 5.50000E-03,0,
 3.445000000E+01, 5.92500E-01, 3.51950E+00,0,
 3.450000000E+01, 5.89050E-01, 4.93050E+00,0,
 3.455000000E+01, 5.87250E-01, 6.00000E-03,0,
 3.460000000E+01, 5.90800E-01, 5.50000E-03,0,
 3.465000000E+01, 5.98050E-01, 4.93050E+00,0,
 3.470000000E+01, 6.10350E-01, 5.50000E-03,0,
 3.475000000E+01, 6.16050E-01, 5.50000E-03,0,
 3.480000000E+01, 6.21100E-01, 4.93050E+00,0,
 3.485000000E+01, 5.64950E-01, 5.50000E-03,0,
 3.490000000E+01, 6.18000E-01, 5.50000E-03,0,
 3.495000000E+01, 6.21550E-01, 6.00000E-03,0,
 3.500000000E+01, 6.12800E-01, 4.93100E+00,0,
 3.505000000E+01, 6.21050E-01, 5.50000E-03,0,
 3.510000000E+01, 6.09550E-01, 5.50000E-03,0,
 3.515000000E+01, 5.97400E-01, 4.93050E+00,0,
 3.520000000E+01, 5.32550E-01, 6.00000E-03,0,
 3.525000000E+01, 5.39650E-01, 5.50000E-03,0,
 3.530000000E+01, 5.08900E-01, 4.93050E+00,0,
 3.535000000E+01, 6.06450E-01, 5.50000E-03,0,
 3.540000000E+01, 6.09000E-01, 5.50000E-03,0,
 3.545000000E+01, 6.28950E-01, 6.00000E-03,0,
 3.550000000E+01, 6.16800E-01, 4.93050E+00,0,
 3.555000000E+01, 6.09900E-01, 5.50000E-03,0,
 3.560000000E+01, 6.18550E-01, 5.50000E-03,0,
 3.565000000E+01, 6.28150E-01, 3.83600E+00,0,
 3.570000000E+01, 6.26650E-01, 5.50000E-03,0,
 3.575000000E+01, 6.54700E-01, 5.50000E-03,0,
 3.580000000E+01, 6.49550E-01, 5.50000E-03,0,
 3.585000000E+01, 6.21250E-01, 4.93050E+00,0,
 3.590000000E+01, 6.31150E-01, 5.50000E-03,0,
 3.595000000E+01, 6.18700E-01, 5.50000E-03,0,
 3.600000000E+01, 5.48050E-01, 4.93050E+00,0,
 3.605000000E+01, 5.70300E-01, 6.00000E-03,0,
 3.610000000E+01, 5.45200E-01, 5.50000E-03,0,
 3.615000000E+01, 5.90000E-01, 4.93050E+00,0,
 3.620000000E+01, 6.22650E-01, 5.50000E-03,0,
 3.625000000E+01, 5.80900E-01, 6.00000E-03,0,
 3.630000000E+01, 6.13650E-01, 5.50000E-03,0,
 3.635000000E+01, 5.67300E-01, 6.00000E-03,0,
 3.640000000E+01, 6.01450E-01, 5.50000E-03,0,
 3.645000000E+01, 6.08750E-01, 4.82000E-01,0,
 3.650000000E+01, 5.98450E-01, 5.50000E-03,0,
 3.655000000E+01, 5.94350E-01, 4.93050E+00,0,
 3.660000000E+01, 5.95500E-01, 5.50000E-03,0,
 3.665000000E+01, 6.08950E-01, 5.50000E-03,0,
 3.670000000E+01, 5.67400E-01, 4.93050E+00,0,
 3.675000000E+01, 6.16100E-01, 5.50000E-03,0,
 3.680000000E+01, 6.48350E-01, 5.50000E-03,0,
 3.685000000E+01, 6.59050E-01, 5.50000E-03,0,
 3.690000000E+01, 6.56800E-01, 5.50000E-03,0,
 3.695000000E+01, 6.52800E-01, 6.00000E-03,0,
 3.700000000E+01, 5.25300E-01, 6.00000E-03,0,
 3.705000000E+01, 6.28100E-01, 4.93050E+00,0,
 3.710000000E+01, 6.49800E-01, 5.50000E-03,0,
 3.715000000E+01, 6.43550E-01, 6.00000E-03,0,
 3.720000000E+01, 6.34600E-01, 4.93050E+00,0,
 3.725000000E+01, 6.38650E-01, 5.50000E-03,0,
 3.730000000E+01, 6.70850E-01, 5.50000E-03,0,
 3.735000000E+01, 6.61850E-01, 4.93050E+00,0,
 3.740000000E+01, 6.77450E-01, 5.50000E-03,0,
 3.745000000E+01, 6.64600E-01, 5.50000E-03,0,
 3.750000000E+01, 6.64300E-01, 4.93050E+00,0,
 3.755000000E+01, 6.39950E-01, 5.50000E-03,0,
 3.760000000E+01, 6.35800E-01, 5.50000E-03,0,
 3.765000000E+01, 5.66900E-01, 5.50000E-03,0,
 3.770000000E+01, 6.26700E-01, 4.93050E+00,0,
 3.775000000E+01, 6.19750E-01, 5.50000E-03,0,
 3.780000000E+01, 6.13750E-01, 5.50000E-03,0,
 3.785000000E+01, 5.87150E-01, 4.93050E+00,0,
 3.790000000E+01, 6.13900E-01, 5.50000E-03,0,
 3.795000000E+01, 6.23200E-01, 5.50000E-03,0,
 3.800000000E+01, 5.98900E-01, 4.93000E+00,0,
 3.805000000E+01, 6.03150E-01, 5.50000E-03,0,
 3.810000000E+01, 5.97650E-01, 5.50000E-03,0,
 3.815000000E+01, 5.26800E-01, 4.93050E+00,0,
 3.820000000E+01, 6.27000E-01, 5.50000E-03,0,
 3.825000000E+01, 6.20650E-01, 6.00000E-03,0,
 3.830000000E+01, 6.54600E-01, 5.50000E-03,0,
 3.835000000E+01, 6.32100E-01, 4.93050E+00,0,
 3.840000000E+01, 6.33600E-01, 5.50000E-03,0,
 3.845000000E+01, 5.93300E-01, 6.00000E-03,0,
 3.850000000E+01, 5.80250E-01, 4.93050E+00,0,
 3.855000000E+01, 5.63150E-01, 4.93050E+00,0,
 3.860000000E+01, 5.71650E-01, 5.50000E-03,0,
 3.865000000E+01, 5.88350E-01, 5.50000E-03,0,
 3.870000000E+01, 5.62250E-01, 5.50000E-03,0,
 3.875000000E+01, 5.99250E-01, 4.93050E+00,0,
 3.880000000E+01, 5.99000E-01, 5.50000E-03,0,
 3.885000000E+01, 6.01900E-01, 6.00000E-03,0,
 3.890000000E+01, 6.03400E-01, 5.50000E-03,0,
 3.895000000E+01, 6.32200E-01, 4.93050E+00,0,
 3.900000000E+01, 6.29300E-01, 3.10100E+00,0,
 3.905000000E+01, 6.33600E-01, 5.50000E-03,0,
 3.910000000E+01, 6.30250E-01, 5.50000E-03,0,
 3.915000000E+01, 6.26300E-01, 5.50000E-03,0,
 3.920000000E+01, 6.32100E-01, 4.93050E+00,0,
 3.925000000E+01, 6.35650E-01, 6.00000E-03,0,
 3.930000000E+01, 6.24850E-01, 5.50000E-03,0,
 3.935000000E+01, 6.20450E-01, 5.50000E-03,0,
 3.940000000E+01, 6.10900E-01, 4.93000E+00,0,
 3.945000000E+01, 6.08200E-01, 4.93050E+00,0,
 3.950000000E+01, 5.91650E-01, 5.50000E-03,0,
 3.955000000E+01, 5.74250E-01, 5.50000E-03,0,
 3.960000000E+01, 5.83650E-01, 5.50000E-03,0,
 3.965000000E+01, 6.05100E-01, 2.47150E+00,0,
 3.970000000E+01, 6.24900E-01, 4.93050E+00,0,
 3.975000000E+01, 6.34650E-01, 5.50000E-03,0,
 3.980000000E+01, 6.40400E-01, 6.00000E-03,0,
 3.985000000E+01, 6.35800E-01, 5.50000E-03,0,
 3.990000000E+01, 6.17700E-01, 4.93050E+00,0,
 3.995000000E+01, 5.92600E-01, 6.00000E-03,0,
 4.000000000E+01, 5.67550E-01, 5.50000E-03,0,
 4.005000000E+01, 5.11750E-01, 6.00000E-03,0,
 4.010000000E+01, 5.28400E-01, 4.93050E+00,0,
 4.015000000E+01, 5.50650E-01, 5.50000E-03,0,
 4.020000000E+01, 5.72750E-01, 5.50000E-03,0,
 4.025000000E+01, 5.96900E-01, 4.93050E+00,0,
 4.030000000E+01, 5.81250E-01, 5.50000E-03,0,
 4.035000000E+01, 5.81400E-01, 5.50000E-03,0,
 4.040000000E+01, 5.88850E-01, 5.50000E-03,0,
 4.045000000E+01, 5.82950E-01, 4.93050E+00,0,
 4.050000000E+01, 5.82900E-01, 5.50000E-03,0,
 4.055000000E+01, 5.77100E-01, 5.50000E-03,0,
 4.060000000E+01, 5.67000E-01, 4.93050E+00,0,
 4.065000000E+01, 4.94400E-01, 5.50000E-03,0,
 4.070000000E+01, 4.61750E-01, 5.50000E-03,0,
 4.075000000E+01, 5.46650E-01, 5.50000E-03,0,
 4.080000000E+01, 5.71750E-01, 4.93000E+00,0,
 4.085000000E+01, 5.74100E-01, 5.50000E-03,0,
 4.090000000E+01, 5.79200E-01, 5.50000E-03,0,
 4.095000000E+01, 5.75100E-01, 4.93050E+00,0,
 4.100000000E+01, 6.04150E-01, 6.00000E-03,0,
 4.105000000E+01, 5.94700E-01, 5.50000E-03,0,
 4.110000000E+01, 6.37400E-01, 4.93100E+00,0,
 4.115000000E+01, 6.37200E-01, 4.81550E+00,0,
 4.120000000E+01, 6.22800E-01, 5.50000E-03,0,
 4.125000000E+01, 6.34300E-01, 5.50000E-03,0,
 4.130000000E+01, 6.10100E-01, 1.70000E-02,0,
 4.135000000E+01, 6.03250E-01, 5.50000E-03,0,
 4.140000000E+01, 5.95550E-01, 5.50000E-03,0,
 4.145000000E+01, 6.06150E-01, 4.93050E+00,0,
 4.150000000E+01, 6.10350E-01, 5.50000E-03,0,
 4.155000000E+01, 6.11350E-01, 5.50000E-03,0,
 4.160000000E+01, 6.09100E-01, 4.93000E+00,0,
 4.165000000E+01, 6.05400E-01, 5.50000E-03,0,
 4.170000000E+01, 5.92400E-01, 5.50000E-03,0,
 4.175000000E+01, 5.80700E-01, 4.93000E+00,0,
 4.180000000E+01, 5.57050E-01, 5.50000E-03,0,
 4.185000000E+01, 5.66300E-01, 5.50000E-03,0,
 4.190000000E+01, 5.74500E-01, 5.50000E-03,0,
 4.195000000E+01, 5.96800E-01, 5.50000E-03,0,
 4.200000000E+01, 5.88100E-01, 5.50000E-03,0,
 4.205000000E+01, 5.85800E-01, 5.50000E-03,0,
 4.210000000E+01, 5.87100E-01, 4.93050E+00,0,
 4.215000000E+01, 5.43900E-01, 5.50000E-03,0,
 4.220000000E+01, 5.57800E-01, 5.50000E-03,0,
 4.225000000E+01, 5.40950E-01, 4.93050E+00,0,
 4.230000000E+01, 5.59250E-01, 5.50000E-03,0,
 4.235000000E+01, 5.74250E-01, 6.00000E-03,0,
 4.240000000E+01, 5.43150E-01, 4.93050E+00,0,
 4.245000000E+01, 6.06700E-01, 5.50000E-03,0,
 4.250000000E+01, 5.99350E-01, 5.50000E-03,0,
 4.255000000E+01, 6.22250E-01, 5.50000E-03,0,
 4.260000000E+01, 6.27500E-01, 4.93050E+00,0,
 4.265000000E+01, 6.49000E-01, 5.50000E-03,0,
 4.270000000E+01, 6.44500E-01, 5.50000E-03,0,
 4.275000000E+01, 6.29650E-01, 4.93050E+00,0,
 4.280000000E+01, 6.40850E-01, 5.50000E-03,0,
 4.285000000E+01, 6.24200E-01, 5.50000E-03,0,
 4.290000000E+01, 6.14650E-01, 4.93050E+00,0,
 4.295000000E+01, 6.21150E-01, 5.50000E-03,0,
 4.300000000E+01, 6.29500E-01, 5.50000E-03,0,
 4.305000000E+01, 6.31250E-01, 5.50000E-03,0,
 4.310000000E+01, 6.38150E-01, 4.93050E+00,0,
 4.315000000E+01, 6.39450E-01, 5.50000E-03,0,
 4.320000000E+01, 6.53950E-01, 5.50000E-03,0,
 4.325000000E+01, 6.30500E-01, 4.93050E+00,0,
 4.330000000E+01, 6.11050E-01, 5.50000E-03,0,
 4.335000000E+01, 6.11700E-01, 5.50000E-03,0,
 4.340000000E+01, 5.65800E-01, 4.93050E+00,0,
 4.345000000E+01, 6.07000E-01, 5.50000E-03,0,
 4.350000000E+01, 6.15800E-01, 5.50000E-03,0,
 4.355000000E+01, 6.37400E-01, 4.93000E+00,0,
 4.360000000E+01, 6.51450E-01, 5.50000E-03,0,
 4.365000000E+01, 6.40350E-01, 5.50000E-03,0,
 4.370000000E+01, 6.05200E-01, 4.93050E+00,0,
 4.375000000E+01, 5.78050E-01, 5.50000E-03,0,
 4.380000000E+01, 5.86150E-01, 5.50000E-03,0,
 4.385000000E+01, 6.08150E-01, 4.93050E+00,0,
 4.390000000E+01, 6.12350E-01, 5.50000E-03,0,
 4.395000000E+01, 6.17200E-01, 5.50000E-03,0,
 4.400000000E+01, 6.16150E-01, 4.93050E+00,0,
 4.405000000E+01, 6.22350E-01, 5.50000E-03,0,
 4.410000000E+01, 6.10600E-01, 5.50000E-03,0,
 4.415000000E+01, 6.33150E-01, 4.93050E+00,0,
 4.420000000E+01, 6.48150E-01, 6.18500E-01,0,
 4.425000000E+01, 6.49200E-01, 5.50000E-03,0,
 4.430000000E+01, 6.50000E-01, 5.50000E-03,0,
 4.435000000E+01, 6.32300E-01, 4.93050E+00,0,
 4.440000000E+01, 6.31800E-01, 5.50000E-03,0,
 4.445000000E+01, 6.30450E-01, 5.50000E-03,0,
 4.450000000E+01, 6.27200E-01, 4.93050E+00,0,
 4.455000000E+01, 6.23250E-01, 5.50000E-03,0,
 4.460000000E+01, 6.46700E-01, 5.50000E-03,0,
 4.465000000E+01, 6.59400E-01, 4.93050E+00,0,
 4.470000000E+01, 6.49000E-01, 5.50000E-03,0,
 4.475000000E+01, 6.10600E-01, 5.50000E-03,0,
 4.480000000E+01, 6.11400E-01, 4.93050E+00,0,
 4.485000000E+01, 5.90500E-01, 5.50000E-03,0,
 4.490000000E+01, 5.89450E-01, 5.50000E-03,0,
 4.495000000E+01, 5.86300E-01, 7.80500E-01,0,
 4.500000000E+01, 6.16600E-01, 4.54200E+00,0,
 4.505000000E+01, 5.92600E-01, 6.00000E-03,0,
 4.510000000E+01, 6.10750E-01, 5.50000E-03,0,
 4.515000000E+01, 5.72250E-01, 4.93050E+00,0,
 4.520000000E+01, 5.75100E-01, 5.50000E-03,0,
 4.525000000E+01, 5.80300E-01, 5.50000E-03,0,
 4.530000000E+01, 6.04550E-01, 4.93050E+00,0,
 4.535000000E+01, 5.78000E-01, 5.50000E-03,0,
 4.540000000E+01, 6.09450E-01, 5.50000E-03,0,
 4.545000000E+01, 5.61950E-01, 4.93050E+00,0,
 4.550000000E+01, 5.65200E-01, 6.00000E-03,0,
 4.555000000E+01, 5.54200E-01, 5.50000E-03,0,
 4.560000000E+01, 4.97100E-01, 4.93050E+00,0,
 4.565000000E+01, 5.24500E-01, 5.50000E-03,0,
 4.570000000E+01, 5.78750E-01, 5.50000E-03,0,
 4.575000000E+01, 5.38200E-01, 4.93050E+00,0,
 4.580000000E+01, 5.83800E-01, 5.50000E-03,0,
 4.585000000E+01, 5.58900E-01, 5.50000E-03,0,
 4.590000000E+01, 4.68600E-01, 4.93050E+00,0,
 4.595000000E+01, 4.62350E-01, 5.50000E-03,0,
 4.600000000E+01, 5.09800E-01, 5.50000E-03,0,
 4.605000000E+01, 5.71900E-01, 4.93050E+00,0,
 4.610000000E+01, 5.84350E-01, 5.50000E-03,0,
 4.615000000E+01, 5.85550E-01, 5.50000E-03,0,
 4.620000000E+01, 5.56550E-01, 5.50000E-03,0,
 4.625000000E+01, 5.16400E-01, 4.93050E+00,0,
 4.630000000E+01, 4.59650E-01, 5.50000E-03,0,
 4.635000000E+01, 4.83250E-01, 5.50000E-03,0,
 4.640000000E+01, 4.81900E-01, 4.93050E+00,0,
 4.645000000E+01, 5.07400E-01, 6.00000E-03,0,
 4.650000000E+01, 5.69050E-01, 5.50000E-03,0,
 4.655000000E+01, 5.41200E-01, 4.93050E+00,0,
 4.660000000E+01, 5.33850E-01, 5.50000E-03,0,
 4.665000000E+01, 4.99300E-01, 5.50000E-03,0,
 4.670000000E+01, 5.08750E-01, 4.93050E+00,0,
 4.675000000E+01, 5.43800E-01, 5.50000E-03,0,
 4.680000000E+01, 5.75800E-01, 5.50000E-03,0,
 4.685000000E+01, 5.65000E-01, 4.93050E+00,0,
 4.690000000E+01, 5.54500E-01, 6.00000E-03,0,
 4.695000000E+01, 5.44950E-01, 5.50000E-03,0,
 4.700000000E+01, 5.52200E-01, 4.93000E+00,0,
 4.705000000E+01, 5.93250E-01, 5.50000E-03,0,
 4.710000000E+01, 5.45600E-01, 6.00000E-03,0,
 4.715000000E+01, 5.44600E-01, 4.93050E+00,0,
 4.720000000E+01, 4.97300E-01, 5.50000E-03,0,
 4.725000000E+01, 4.81250E-01, 3.87000E-01,0,
 4.730000000E+01, 5.00650E-01, 5.00000E-03,0,
 4.735000000E+01, 4.91100E-01, 6.00000E-03,0,
 4.740000000E+01, 4.76150E-01, 2.40000E-02,0,
 4.745000000E+01, 4.39900E-01, 5.50000E-03,0,
 4.750000000E+01, 4.90100E-01, 5.50000E-03,0,
 4.755000000E+01, 4.87100E-01, 4.93050E+00,0,
 4.760000000E+01, 4.88750E-01, 5.50000E-03,0,
 4.765000000E+01, 4.53800E-01, 5.50000E-03,0,
 4.770000000E+01, 5.29800E-01, 4.93000E+00,0,
 4.775000000E+01, 5.39650E-01, 5.50000E-03,0,
 4.780000000E+01, 5.22150E-01, 4.93050E+00,0,
 4.785000000E+01, 3.16450E-01, 5.50000E-03,0,
 4.790000000E+01, 5.23600E-01, 6.00000E-03,0,
 4.795000000E+01, 5.57250E-01, 4.93000E+00,0,
 4.800000000E+01, 5.93050E-01, 5.50000E-03,0,
 4.805000000E+01, 5.37650E-01, 5.50000E-03,0,
 4.810000000E+01, 5.10800E-01, 4.93050E+00,0,
 4.815000000E+01, 4.94450E-01, 5.50000E-03,0,
 4.820000000E+01, 4.93300E-01, 5.50000E-03,0,
 4.825000000E+01, 4.94400E-01, 5.50000E-03,0,
 4.830000000E+01, 4.66550E-01, 4.93050E+00,0,
 4.835000000E+01, 4.46250E-01, 5.50000E-03,0,
 4.840000000E+01, 4.57450E-01, 5.50000E-03,0,
 4.845000000E+01, 5.02550E-01, 4.93050E+00,0,
 4.850000000E+01, 5.58300E-01, 5.50000E-03,0,
 4.855000000E+01, 5.65100E-01, 5.50000E-03,0,
 4.860000000E+01, 5.45300E-01, 5.50000E-03,0,
 4.865000000E+01, 4.36000E-01, 4.93050E+00,0,
 4.870000000E+01, 3.74200E-01, 5.50000E-03,0,
 4.875000000E+01, 4.59900E-01, 5.50000E-03,0,
 4.880000000E+01, 4.79600E-01, 5.50000E-03,0,
 4.885000000E+01, 3.72800E-01, 4.93050E+00,0,
 4.890000000E+01, 5.42700E-01, 5.50000E-03,0,
 4.895000000E+01, 5.49500E-01, 5.50000E-03,0,
 4.900000000E+01, 5.45900E-01, 5.50000E-03,0,
 4.905000000E+01, 5.69450E-01, 4.93000E+00,0,
 4.910000000E+01, 4.93550E-01, 5.50000E-03,0,
 4.915000000E+01, 4.34150E-01, 5.50000E-03,0,
 4.920000000E+01, 3.56500E-01, 6.00000E-03,0,
 4.925000000E+01, 3.75400E-01, 4.93050E+00,0,
 4.930000000E+01, 4.40300E-01, 5.50000E-03,0,
 4.935000000E+01, 4.72900E-01, 5.50000E-03,0,
 4.940000000E+01, 4.45000E-01, 5.50000E-03,0,
 4.945000000E+01, 3.18100E-01, 4.93050E+00,0,
 4.950000000E+01, 3.64400E-01, 5.50000E-03,0,
 4.955000000E+01, 3.83400E-01, 5.50000E-03,0,
 4.960000000E+01, 4.48500E-01, 4.93050E+00,0,
 4.965000000E+01, 4.31750E-01, 5.50000E-03,0,
 4.970000000E+01, 3.75500E-01, 5.50000E-03,0,
 4.975000000E+01, 3.29000E-01, 5.50000E-03,0,
 4.980000000E+01, 4.38350E-01, 4.93050E+00,0,
 4.985000000E+01, 4.86150E-01, 5.50000E-03,0,
 4.990000000E+01, 5.49300E-01, 5.50000E-03,0,
 4.995000000E+01, 5.65300E-01, 4.93050E+00,0,
 5.000000000E+01, 6.07950E-01, 5.50000E-03,0,
 5.005000000E+01, 6.16400E-01, 5.50000E-03,0,
 5.010000000E+01, 6.13200E-01, 5.50000E-03,0,
 5.015000000E+01, 6.01650E-01, 4.93000E+00,0,
 5.020000000E+01, 5.93150E-01, 6.00000E-03,0,
 5.025000000E+01, 5.96350E-01, 5.50000E-03,0,
 5.030000000E+01, 6.05150E-01, 4.93050E+00,0,
 5.035000000E+01, 6.04350E-01, 5.50000E-03,0,
 5.040000000E+01, 4.46400E-01, 5.50000E-03,0,
 5.045000000E+01, 5.88950E-01, 5.50000E-03,0,
 5.050000000E+01, 5.48950E-01, 4.93050E+00,0,
 5.055000000E+01, 5.35700E-01, 5.50000E-03,0,
 5.060000000E+01, 5.20150E-01, 5.50000E-03,0,
 5.065000000E+01, 5.54700E-01, 4.93050E+00,0,
 5.070000000E+01, 5.45700E-01, 5.50000E-03,0,
 5.075000000E+01, 5.27700E-01, 5.50000E-03,0,
 5.080000000E+01, 4.86150E-01, 5.50000E-03,0,
 5.085000000E+01, 4.89200E-01, 4.93050E+00,0,
 5.090000000E+01, 5.32750E-01, 5.50000E-03,0,
 5.095000000E+01, 5.64400E-01, 5.50000E-03,0,
 5.100000000E+01, 5.95650E-01, 6.00000E-03,0,
 5.105000000E+01, 5.96750E-01, 4.93050E+00,0,
 5.110000000E+01, 5.88900E-01, 5.50000E-03,0,
 5.115000000E+01, 5.70200E-01, 5.50000E-03,0,
 5.120000000E+01, 5.18300E-01, 4.93050E+00,0,
 5.125000000E+01, 4.18100E-01, 5.50000E-03,0,
 5.130000000E+01, 4.04350E-01, 5.50000E-03,0,
 5.135000000E+01, 4.92750E-01, 4.93050E+00,0,
 5.140000000E+01, 5.55900E-01, 5.50000E-03,0,
 5.145000000E+01, 5.78350E-01, 5.50000E-03,0,
 5.150000000E+01, 5.80800E-01, 4.93050E+00,0,
 5.155000000E+01, 5.70250E-01, 6.00000E-03,0,
 5.160000000E+01, 5.51600E-01, 5.50000E-03,0,
 5.165000000E+01, 5.10050E-01, 5.50000E-03,0,
 5.170000000E+01, 4.30800E-01, 5.50000E-03,0,
 5.175000000E+01, 4.92400E-01, 6.00000E-03,0,
 5.180000000E+01, 5.69650E-01, 5.50000E-03,0,
 5.185000000E+01, 6.02850E-01, 4.93050E+00,0,
 5.190000000E+01, 6.04050E-01, 5.50000E-03,0,
 5.195000000E+01, 5.94200E-01, 5.50000E-03,0,
 5.200000000E+01, 5.82850E-01, 4.93050E+00,0,
 5.205000000E+01, 5.01800E-01, 5.50000E-03,0,
 5.210000000E+01, 5.09050E-01, 5.50000E-03,0,
 5.215000000E+01, 4.65650E-01, 6.00000E-03,0,
 5.220000000E+01, 4.68400E-01, 4.93050E+00,0,
 5.225000000E+01, 4.84750E-01, 5.50000E-03,0,
 5.230000000E+01, 4.89900E-01, 5.50000E-03,0,
 5.235000000E+01, 4.93600E-01, 4.93000E+00,0,
 5.240000000E+01, 4.91750E-01, 6.00000E-03,0,
 5.245000000E+01, 4.65350E-01, 5.50000E-03,0,
 5.250000000E+01, 4.62100E-01, 4.93000E+00,0,
 5.255000000E+01, 4.52100E-01, 5.50000E-03,0,
 5.260000000E+01, 4.91450E-01, 5.50000E-03,0,
 5.265000000E+01, 3.58350E-01, 6.00000E-03,0,
 5.270000000E+01, 4.70200E-01, 4.93050E+00,0,
 5.275000000E+01, 4.86450E-01, 5.50000E-03,0,
 5.280000000E+01, 4.83300E-01, 5.50000E-03,0,
 5.285000000E+01, 4.98550E-01, 4.93000E+00,0,
 5.290000000E+01, 5.47350E-01, 5.50000E-03,0,
 5.295000000E+01, 5.37650E-01, 5.50000E-03,0,
 5.300000000E+01, 5.23050E-01, 6.00000E-03,0,
 5.305000000E+01, 5.13250E-01, 6.00000E-03,0,
 5.310000000E+01, 5.13500E-01, 5.50000E-03,0,
 5.315000000E+01, 5.27500E-01, 5.50000E-03,0,
 5.320000000E+01, 5.47700E-01, 4.93050E+00,0,
 5.325000000E+01, 5.53050E-01, 6.00000E-03,0,
 5.330000000E+01, 5.66100E-01, 6.00000E-03,0,
 5.335000000E+01, 5.71900E-01, 4.93000E+00,0,
 5.340000000E+01, 5.58000E-01, 5.50000E-03,0,
 5.345000000E+01, 5.38600E-01, 5.50000E-03,0,
 5.350000000E+01, 4.93950E-01, 5.50000E-03,0,
 5.355000000E+01, 4.85100E-01, 4.93050E+00,0,
 5.360000000E+01, 5.51750E-01, 5.50000E-03,0,
 5.365000000E+01, 5.94100E-01, 5.50000E-03,0,
 5.370000000E+01, 6.03400E-01, 4.93050E+00,0,
 5.375000000E+01, 5.84900E-01, 5.50000E-03,0,
 5.380000000E+01, 5.78650E-01, 5.50000E-03,0,
 5.385000000E+01, 5.65850E-01, 5.50000E-03,0,
 5.390000000E+01, 5.99700E-01, 4.93050E+00,0,
 5.395000000E+01, 6.22600E-01, 5.50000E-03,0,
 5.400000000E+01, 6.29400E-01, 5.50000E-03,0,
 5.405000000E+01, 6.16500E-01, 4.93050E+00,0,
 5.410000000E+01, 5.79650E-01, 6.00000E-03,0,
 5.415000000E+01, 5.26000E-01, 6.00000E-03,0,
 5.420000000E+01, 5.52250E-01, 4.93000E+00,0,
 5.425000000E+01, 5.85350E-01, 5.50000E-03,0,
 5.430000000E+01, 6.03150E-01, 5.50000E-03,0,
 5.435000000E+01, 5.93350E-01, 4.93050E+00,0,
 5.440000000E+01, 5.71400E-01, 5.50000E-03,0,
 5.445000000E+01, 5.61000E-01, 5.50000E-03,0,
 5.450000000E+01, 5.48850E-01, 4.93000E+00,0,
 5.455000000E+01, 4.72500E-01, 5.50000E-03,0,
 5.460000000E+01, 5.29700E-01, 6.00000E-03,0,
 5.465000000E+01, 5.29900E-01, 4.93050E+00,0,
 5.470000000E+01, 5.48850E-01, 5.50000E-03,0,
 5.475000000E+01, 5.65450E-01, 5.50000E-03,0,
 5.480000000E+01, 5.75200E-01, 4.93050E+00,0,
 5.485000000E+01, 5.80350E-01, 5.50000E-03,0,
 5.490000000E+01, 5.73700E-01, 5.50000E-03,0,
 5.495000000E+01, 5.79250E-01, 4.93050E+00,0,
 5.500000000E+01, 5.85200E-01, 5.50000E-03,0,
 5.505000000E+01, 6.03700E-01, 5.50000E-03,0,
 5.510000000E+01, 5.96650E-01, 5.50000E-03,0,
 5.515000000E+01, 6.16300E-01, 4.93050E+00,0,
 5.520000000E+01, 5.98750E-01, 5.50000E-03,0,
 5.525000000E+01, 5.65400E-01, 5.50000E-03,0,
 5.530000000E+01, 5.62850E-01, 4.93050E+00,0,
 5.535000000E+01, 5.70350E-01, 5.50000E-03,0,
 5.540000000E+01, 5.85850E-01, 5.50000E-03,0,
 5.545000000E+01, 6.21500E-01, 5.50000E-03,0,
 5.550000000E+01, 6.18950E-01, 4.93050E+00,0,
 5.555000000E+01, 5.79750E-01, 5.50000E-03,0,
 5.560000000E+01, 5.49350E-01, 5.50000E-03,0,
 5.565000000E+01, 5.59950E-01, 4.93050E+00,0,
 5.570000000E+01, 5.94150E-01, 6.00000E-03,0,
 5.575000000E+01, 6.01700E-01, 5.50000E-03,0,
 5.580000000E+01, 5.80500E-01, 5.50000E-03,0,
 5.585000000E+01, 5.55900E-01, 4.93050E+00,0,
 5.590000000E+01, 4.86700E-01, 5.50000E-03,0,
 5.595000000E+01, 4.98000E-01, 5.50000E-03,0,
 5.600000000E+01, 5.39350E-01, 4.93050E+00,0,
 5.605000000E+01, 5.73500E-01, 5.50000E-03,0,
 5.610000000E+01, 5.94950E-01, 5.50000E-03,0,
 5.615000000E+01, 6.10100E-01, 4.83000E-01,0,
 5.620000000E+01, 6.22400E-01, 4.93050E+00,0,
 5.625000000E+01, 6.19500E-01, 5.50000E-03,0,
 5.630000000E+01, 6.20950E-01, 6.00000E-03,0,
 5.635000000E+01, 6.24650E-01, 4.93050E+00,0,
 5.640000000E+01, 6.14300E-01, 5.50000E-03,0,
 5.645000000E+01, 6.17800E-01, 6.00000E-03,0,
 5.650000000E+01, 6.19850E-01, 5.50000E-03,0,
 5.655000000E+01, 6.13750E-01, 4.93000E+00,0,
 5.660000000E+01, 6.12950E-01, 5.50000E-03,0,
 5.665000000E+01, 6.03050E-01, 6.00000E-03,0,
 5.670000000E+01, 6.34950E-01, 4.93050E+00,0,
 5.675000000E+01, 5.84550E-01, 5.50000E-03,0,
 5.680000000E+01, 5.92150E-01, 5.50000E-03,0,
 5.685000000E+01, 5.90150E-01, 4.93000E+00,0,
 5.690000000E+01, 5.99400E-01, 5.50000E-03,0,
 5.695000000E+01, 6.01600E-01, 5.50000E-03,0,
 5.700000000E+01, 5.93300E-01, 5.50000E-03,0,
 5.705000000E+01, 5.40050E-01, 4.93050E+00,0,
 5.710000000E+01, 5.36950E-01, 5.50000E-03,0,
 5.715000000E+01, 4.94200E-01, 5.50000E-03,0,
 5.720000000E+01, 5.14300E-01, 4.93050E+00,0,
 5.725000000E+01, 5.51550E-01, 5.50000E-03,0,
 5.730000000E+01, 5.67450E-01, 5.50000E-03,0,
 5.735000000E+01, 5.65050E-01, 5.50000E-03,0,
 5.740000000E+01, 5.53550E-01, 4.93050E+00,0,
 5.745000000E+01, 5.44450E-01, 6.00000E-03,0,
 5.750000000E+01, 5.56550E-01, 5.50000E-03,0,
 5.755000000E+01, 5.75100E-01, 4.93000E+00,0,
 5.760000000E+01, 5.66900E-01, 5.50000E-03,0,
 5.765000000E+01, 5.77000E-01, 5.50000E-03,0,
 5.770000000E+01, 5.51650E-01, 4.93050E+00,0,
 5.775000000E+01, 5.67800E-01, 5.50000E-03,0,
 5.780000000E+01, 5.88800E-01, 5.50000E-03,0,
 5.785000000E+01, 5.98050E-01, 5.50000E-03,0,
 5.790000000E+01, 6.05350E-01, 4.93050E+00,0,
 5.795000000E+01, 5.95700E-01, 5.50000E-03,0,
 5.800000000E+01, 5.95550E-01, 5.50000E-03,0,
 5.805000000E+01, 5.60900E-01, 4.93050E+00,0,
 5.810000000E+01, 5.38200E-01, 5.50000E-03,0,
 5.815000000E+01, 5.08750E-01, 5.50000E-03,0,
 5.820000000E+01, 5.26100E-01, 4.93050E+00,0,
 5.825000000E+01, 5.51150E-01, 5.50000E-03,0,
 5.830000000E+01, 6.01800E-01, 5.50000E-03,0,
 5.835000000E+01, 5.87400E-01, 6.00000E-03,0,
 5.840000000E+01, 5.97400E-01, 4.93050E+00,0,
 5.845000000E+01, 5.74950E-01, 6.00000E-03,0,
 5.850000000E+01, 5.62950E-01, 6.00000E-03,0,
 5.855000000E+01, 5.29600E-01, 6.00000E-03,0,
 5.860000000E+01, 4.96900E-01, 4.93050E+00,0,
 5.865000000E+01, 4.69300E-01, 5.50000E-03,0,
 5.870000000E+01, 4.36000E-01, 5.50000E-03,0,
 5.875000000E+01, 4.10450E-01, 4.93050E+00,0,
 5.880000000E+01, 4.65300E-01, 5.50000E-03,0,
 5.885000000E+01, 5.41400E-01, 5.50000E-03,0,
 5.890000000E+01, 5.68600E-01, 5.50000E-03,0,
 5.895000000E+01, 5.70750E-01, 4.93050E+00,0,
 5.900000000E+01, 5.73250E-01, 6.00000E-03,0,
 5.905000000E+01, 5.54500E-01, 5.50000E-03,0,
 5.910000000E+01, 5.65950E-01, 4.93050E+00,0,
 5.915000000E+01, 5.91650E-01, 5.50000E-03,0,
 5.920000000E+01, 6.20650E-01, 5.50000E-03,0,
 5.925000000E+01, 5.97250E-01, 5.50000E-03,0,
 5.930000000E+01, 5.68200E-01, 4.93050E+00,0,
 5.935000000E+01, 5.47600E-01, 6.00000E-03,0,
 5.940000000E+01, 4.41400E-01, 5.50000E-03,0,
 5.945000000E+01, 5.57250E-01, 4.93050E+00,0,
 5.950000000E+01, 5.80400E-01, 5.50000E-03,0,
 5.955000000E+01, 5.53800E-01, 6.00000E-03,0,
 5.960000000E+01, 5.42350E-01, 5.50000E-03,0,
 5.965000000E+01, 5.02250E-01, 4.93050E+00,0,
 5.970000000E+01, 4.95750E-01, 5.50000E-03,0,
 5.975000000E+01, 5.33500E-01, 5.50000E-03,0,
 5.980000000E+01, 5.47650E-01, 4.93050E+00,0,
 5.985000000E+01, 5.40950E-01, 5.50000E-03,0,
 5.990000000E+01, 5.17250E-01, 5.50000E-03,0,
 5.995000000E+01, 5.00050E-01, 5.50000E-03,0,
 6.000000000E+01, 5.19400E-01, 4.93050E+00,0,
 6.005000000E+01, 5.53600E-01, 5.50000E-03,0,
 6.010000000E+01, 5.64800E-01, 5.50000E-03,0,
 6.015000000E+01, 5.43800E-01, 4.93050E+00,0,
 6.020000000E+01, 5.50800E-01, 6.00000E-03,0,
 6.025000000E+01, 5.33250E-01, 5.50000E-03,0,
 6.030000000E+01, 5.22400E-01, 5.50000E-03,0,
 6.035000000E+01, 5.33800E-01, 4.93050E+00,0,
 6.040000000E+01, 5.29500E-01, 5.50000E-03,0,
 6.045000000E+01, 5.65750E-01, 5.50000E-03,0,
 6.050000000E+01, 5.87000E-01, 6.00000E-03,0,
 6.055000000E+01, 6.02050E-01, 4.93050E+00,0,
 6.060000000E+01, 6.23950E-01, 5.50000E-03,0,
 6.065000000E+01, 6.30300E-01, 5.50000E-03,0,
 6.070000000E+01, 6.20750E-01, 4.93000E+00,0,
 6.075000000E+01, 5.96700E-01, 4.93050E+00,0,
 6.080000000E+01, 5.56400E-01, 5.50000E-03,0,
 6.085000000E+01, 4.30750E-01, 5.50000E-03,0,
 6.090000000E+01, 5.47800E-01, 4.93050E+00,0,
 6.095000000E+01, 5.22050E-01, 5.50000E-03,0,
 6.100000000E+01, 5.98000E-01, 5.50000E-03,0,
 6.105000000E+01, 5.98750E-01, 5.50000E-03,0,
 6.110000000E+01, 5.94800E-01, 4.93050E+00,0,
 6.115000000E+01, 6.04200E-01, 4.93000E+00,0,
 6.120000000E+01, 6.16050E-01, 5.50000E-03,0,
 6.125000000E+01, 5.87100E-01, 5.50000E-03,0,
 6.130000000E+01, 5.81850E-01, 4.93050E+00,0,
 6.135000000E+01, 5.87500E-01, 5.50000E-03,0,
 6.140000000E+01, 6.19800E-01, 5.50000E-03,0,
 6.145000000E+01, 6.13550E-01, 5.50000E-03,0,
 6.150000000E+01, 6.01050E-01, 4.93050E+00,0,
 6.155000000E+01, 5.94700E-01, 5.50000E-03,0,
 6.160000000E+01, 5.79900E-01, 5.50000E-03,0,
 6.165000000E+01, 5.73450E-01, 4.93050E+00,0,
 6.170000000E+01, 5.66200E-01, 5.50000E-03,0,
 6.175000000E+01, 5.95200E-01, 5.50000E-03,0,
 6.180000000E+01, 6.13400E-01, 4.93050E+00,0,
 6.185000000E+01, 6.23700E-01, 4.93050E+00,0,
 6.190000000E+01, 6.13150E-01, 5.50000E-03,0,
 6.195000000E+01, 6.12150E-01, 5.50000E-03,0,
 6.200000000E+01, 6.10200E-01, 4.93050E+00,0,
 6.205000000E+01, 5.98750E-01, 5.50000E-03,0,
 6.210000000E+01, 6.07350E-01, 5.50000E-03,0,
 6.215000000E+01, 6.21200E-01, 5.50000E-03,0,
 6.220000000E+01, 6.00500E-01, 4.93050E+00,0,
 6.225000000E+01, 6.14750E-01, 5.50000E-03,0,
 6.230000000E+01, 6.05600E-01, 5.50000E-03,0,
 6.235000000E+01, 6.01950E-01, 5.50000E-03,0,
 6.240000000E+01, 5.90550E-01, 4.93050E+00,0,
 6.245000000E+01, 5.96450E-01, 5.50000E-03,0,
 6.250000000E+01, 5.96600E-01, 5.50000E-03,0,
 6.255000000E+01, 6.22150E-01, 5.50000E-03,0,
 6.260000000E+01, 6.43100E-01, 4.93050E+00,0,
 6.265000000E+01, 6.49900E-01, 5.50000E-03,0,
 6.270000000E+01, 6.37250E-01, 5.50000E-03,0,
 6.275000000E+01, 6.37150E-01, 4.93050E+00,0,
 6.280000000E+01, 6.15650E-01, 5.50000E-03,0,
 6.285000000E+01, 5.95500E-01, 5.50000E-03,0,
 6.290000000E+01, 5.87250E-01, 5.50000E-03,0,
 6.295000000E+01, 5.89400E-01, 4.93050E+00,0,
 6.300000000E+01, 5.90950E-01, 6.00000E-03,0,
 6.305000000E+01, 5.98450E-01, 5.50000E-03,0,
 6.310000000E+01, 5.20450E-01, 5.50000E-03,0,
 6.315000000E+01, 5.82350E-01, 4.93050E+00,0,
 6.320000000E+01, 5.80900E-01, 5.50000E-03,0,
 6.325000000E+01, 6.07050E-01, 5.50000E-03,0,
 6.330000000E+01, 5.59000E-01, 5.50000E-03,0,
 6.335000000E+01, 6.15800E-01, 4.93050E+00,0,
 6.340000000E+01, 6.00700E-01, 5.50000E-03,0,
 6.345000000E+01, 6.06300E-01, 5.50000E-03,0,
 6.350000000E+01, 6.21650E-01, 5.50000E-03,0,
 6.355000000E+01, 6.18100E-01, 4.93050E+00,0,
 6.360000000E+01, 6.45650E-01, 5.50000E-03,0,
 6.365000000E+01, 6.41550E-01, 5.50000E-03,0,
 6.370000000E+01, 6.40450E-01, 4.93100E+00,0,
 6.375000000E+01, 6.24150E-01, 4.93050E+00,0,
 6.380000000E+01, 5.98100E-01, 5.50000E-03,0,
 6.385000000E+01, 5.66400E-01, 5.50000E-03,0,
 6.390000000E+01, 5.59200E-01, 4.93050E+00,0,
 6.395000000E+01, 5.38500E-01, 5.50000E-03,0,
 6.400000000E+01, 5.78550E-01, 5.50000E-03,0,
 6.405000000E+01, 5.83250E-01, 4.93050E+00,0,
 6.410000000E+01, 5.34700E-01, 6.00000E-03,0,
 6.415000000E+01, 5.82550E-01, 5.50000E-03,0,
 6.420000000E+01, 5.40300E-01, 6.00000E-03,0,
 6.425000000E+01, 5.54150E-01, 5.50000E-03,0,
 6.430000000E+01, 5.66600E-01, 5.50000E-03,0,
 6.435000000E+01, 5.87150E-01, 5.50000E-03,0,
 6.440000000E+01, 5.80950E-01, 4.93050E+00,0,
 6.445000000E+01, 5.77850E-01, 5.50000E-03,0,
 6.450000000E+01, 5.56400E-01, 5.50000E-03,0,
 6.455000000E+01, 5.51900E-01, 4.93050E+00,0,
 6.460000000E+01, 5.57700E-01, 5.50000E-03,0,
 6.465000000E+01, 5.82850E-01, 5.50000E-03,0,
 6.470000000E+01, 5.97950E-01, 6.00000E-03,0,
 6.475000000E+01, 5.87300E-01, 4.93050E+00,0,
 6.480000000E+01, 5.25050E-01, 5.50000E-03,0,
 6.485000000E+01, 5.32050E-01, 5.50000E-03,0,
 6.490000000E+01, 5.63300E-01, 4.93050E+00,0,
 6.495000000E+01, 6.05450E-01, 5.50000E-03,0,
 6.500000000E+01, 5.93750E-01, 5.50000E-03,0,
 6.505000000E+01, 5.87850E-01, 5.50000E-03,0,
 6.510000000E+01, 5.35450E-01, 4.93050E+00,0,
 6.515000000E+01, 5.45300E-01, 5.50000E-03,0,
 6.520000000E+01, 5.38250E-01, 5.50000E-03,0,
 6.525000000E+01, 5.37200E-01, 4.93050E+00,0,
 6.530000000E+01, 5.52600E-01, 5.50000E-03,0,
 6.535000000E+01, 5.64050E-01, 5.50000E-03,0,
 6.540000000E+01, 5.29800E-01, 4.93000E+00,0,
 6.545000000E+01, 5.01300E-01, 5.50000E-03,0,
 6.550000000E+01, 5.59650E-01, 5.50000E-03,0,
 6.555000000E+01, 5.59050E-01, 5.50000E-03,0,
 6.560000000E+01, 4.81450E-01, 4.93050E+00,0,
 6.565000000E+01, 5.12450E-01, 5.50000E-03,0,
 6.570000000E+01, 4.67500E-01, 5.50000E-03,0,
 6.575000000E+01, 4.41550E-01, 5.50000E-03,0,
 6.580000000E+01, 4.72400E-01, 4.93050E+00,0,
 6.585000000E+01, 4.82350E-01, 5.50000E-03,0,
 6.590000000E+01, 4.61950E-01, 5.50000E-03,0,
 6.595000000E+01, 4.78800E-01, 5.50000E-03,0,
 6.600000000E+01, 4.29450E-01, 4.93050E+00,0,
 6.605000000E+01, 4.10600E-01, 6.00000E-03,0,
 6.610000000E+01, 3.70800E-01, 5.50000E-03,0,
 6.615000000E+01, 3.89150E-01, 3.21650E+00,0,
 6.620000000E+01, 4.57850E-01, 4.93050E+00,0,
 6.625000000E+01, 4.98250E-01, 5.50000E-03,0,
 6.630000000E+01, 4.77050E-01, 6.00000E-03,0,
 6.635000000E+01, 4.58850E-01, 4.93050E+00,0,
 6.640000000E+01, 4.56150E-01, 5.50000E-03,0,
 6.645000000E+01, 4.72950E-01, 5.50000E-03,0,
 6.650000000E+01, 5.13300E-01, 5.50000E-03,0,
 6.655000000E+01, 5.33300E-01, 4.93050E+00,0,
 6.660000000E+01, 5.62500E-01, 5.50000E-03,0,
 6.665000000E+01, 5.90100E-01, 5.50000E-03,0,
 6.670000000E+01, 5.49050E-01, 4.93050E+00,0,
 6.675000000E+01, 5.30900E-01, 5.50000E-03,0,
 6.680000000E+01, 5.18450E-01, 5.50000E-03,0,
 6.685000000E+01, 4.72050E-01, 4.93050E+00,0,
 6.690000000E+01, 4.62850E-01, 4.93050E+00,0,
 6.695000000E+01, 4.91800E-01, 5.50000E-03,0,
 6.700000000E+01, 4.96850E-01, 5.50000E-03,0,
 6.705000000E+01, 5.11750E-01, 4.93050E+00,0,
 6.710000000E+01, 5.57450E-01, 5.50000E-03,0,
 6.715000000E+01, 5.69300E-01, 5.50000E-03,0,
 6.720000000E+01, 5.11700E-01, 6.00000E-03,0,
 6.725000000E+01, 5.27350E-01, 5.50000E-03,0,
 6.730000000E+01, 4.75900E-01, 4.93050E+00,0,
 6.735000000E+01, 4.58850E-01, 5.50000E-03,0,
 6.740000000E+01, 4.77150E-01, 6.00000E-03,0,
 6.745000000E+01, 5.05550E-01, 5.50000E-03,0,
 6.750000000E+01, 5.42800E-01, 4.93050E+00,0,
 6.755000000E+01, 5.55800E-01, 5.50000E-03,0,
 6.760000000E+01, 5.43350E-01, 5.50000E-03,0,
 6.765000000E+01, 5.61000E-01, 5.50000E-03,0,
 6.770000000E+01, 5.57200E-01, 4.93050E+00,0,
 6.775000000E+01, 5.74500E-01, 4.93050E+00,0,
 6.780000000E+01, 5.40700E-01, 5.50000E-03,0,
 6.785000000E+01, 4.92800E-01, 5.50000E-03,0,
 6.790000000E+01, 4.58100E-01, 6.00000E-03,0,
 6.795000000E+01, 4.53100E-01, 4.93050E+00,0,
 6.800000000E+01, 4.86100E-01, 6.00000E-03,0,
 6.805000000E+01, 5.54400E-01, 5.50000E-03,0,
 6.810000000E+01, 5.44650E-01, 6.00000E-03,0,
 6.815000000E+01, 5.58100E-01, 4.93000E+00,0,
 6.820000000E+01, 5.36350E-01, 5.50000E-03,0,
 6.825000000E+01, 5.18900E-01, 5.50000E-03,0,
 6.830000000E+01, 5.19450E-01, 4.93050E+00,0,
 6.835000000E+01, 5.63600E-01, 4.93050E+00,0,
 6.840000000E+01, 5.74700E-01, 6.00000E-03,0,
 6.845000000E+01, 6.06300E-01, 5.50000E-03,0,
 6.850000000E+01, 6.00250E-01, 5.50000E-03,0,
 6.855000000E+01, 6.02900E-01, 4.93000E+00,0,
 6.860000000E+01, 6.13150E-01, 6.00000E-03,0,
 6.865000000E+01, 6.25050E-01, 5.50000E-03,0,
 6.870000000E+01, 6.02350E-01, 5.50000E-03,0,
 6.875000000E+01, 6.07500E-01, 4.93050E+00,0,
 6.880000000E+01, 5.71900E-01, 5.50000E-03,0,
 6.885000000E+01, 5.53950E-01, 5.50000E-03,0,
 6.890000000E+01, 5.39450E-01, 5.50000E-03,0,
 6.895000000E+01, 5.54850E-01, 2.50000E-02,0,
 6.900000000E+01, 5.91600E-01, 4.93050E+00,0,
 6.905000000E+01, 5.88800E-01, 5.50000E-03,0,
 6.910000000E+01, 5.93950E-01, 5.50000E-03,0,
 6.915000000E+01, 4.99550E-01, 4.93050E+00,0,
 6.920000000E+01, 4.98950E-01, 4.93050E+00,0,
 6.925000000E+01, 5.03950E-01, 5.50000E-03,0,
 6.930000000E+01, 4.66000E-01, 5.50000E-03,0,
 6.935000000E+01, 5.80200E-01, 5.50000E-03,0,
 6.940000000E+01, 5.64800E-01, 4.93050E+00,0,
 6.945000000E+01, 5.51000E-01, 5.50000E-03,0,
 6.950000000E+01, 5.11800E-01, 5.50000E-03,0,
 6.955000000E+01, 4.55350E-01, 5.50000E-03,0,
 6.960000000E+01, 4.65050E-01, 4.93050E+00,0,
 6.965000000E+01, 4.66000E-01, 5.50000E-03,0,
 6.970000000E+01, 4.97050E-01, 5.50000E-03,0,
 6.975000000E+01, 4.65350E-01, 5.50000E-03,0,
 6.980000000E+01, 3.86000E-01, 4.93050E+00,0,
 6.985000000E+01, 2.79700E-01, 5.50000E-03,0,
 6.990000000E+01, 3.03550E-01, 5.50000E-03,0,
 6.995000000E+01, 3.47200E-01, 4.93000E+00,0,
 7.000000000E+01, 4.01050E-01, 4.93050E+00,0,
 7.005000000E+01, 4.54450E-01, 5.50000E-03,0,
 7.010000000E+01, 4.71200E-01, 6.00000E-03,0,
 7.015000000E+01, 4.72450E-01, 5.50000E-03,0,
 7.020000000E+01, 4.71850E-01, 4.93050E+00,0,
 7.025000000E+01, 4.56900E-01, 5.50000E-03,0,
 7.030000000E+01, 4.28100E-01, 5.50000E-03,0,
 7.035000000E+01, 3.83650E-01, 5.50000E-03,0,
 7.040000000E+01, 4.42850E-01, 4.93050E+00,0,
 7.045000000E+01, 5.13850E-01, 5.50000E-03,0,
 7.050000000E+01, 5.55500E-01, 6.00000E-03,0,
 7.055000000E+01, 5.58800E-01, 5.50000E-03,0,
 7.060000000E+01, 5.87700E-01, 4.93000E+00,0,
 7.065000000E+01, 5.72450E-01, 5.50000E-03,0,
 7.070000000E+01, 5.41600E-01, 5.50000E-03,0,
 7.075000000E+01, 4.97500E-01, 6.00000E-03,0,
 7.080000000E+01, 4.96550E-01, 4.93000E+00,0,
 7.085000000E+01, 5.16650E-01, 5.50000E-03,0,
 7.090000000E+01, 5.48900E-01, 5.50000E-03,0,
 7.095000000E+01, 5.69900E-01, 6.00000E-03,0,
 7.100000000E+01, 5.77900E-01, 4.93000E+00,0,
 7.105000000E+01, 5.49950E-01, 5.50000E-03,0,
 7.110000000E+01, 5.52950E-01, 5.50000E-03,0,
 7.115000000E+01, 5.69400E-01, 5.50000E-03,0,
 7.120000000E+01, 5.33150E-01, 4.93000E+00,0,
 7.125000000E+01, 5.41100E-01, 5.50000E-03,0,
 7.130000000E+01, 5.31600E-01, 5.50000E-03,0,
 7.135000000E+01, 5.34050E-01, 5.50000E-03,0,
 7.140000000E+01, 5.45100E-01, 6.00000E-03,0,
 7.145000000E+01, 5.32050E-01, 4.93000E+00,0,
 7.150000000E+01, 5.12450E-01, 6.00000E-03,0,
 7.155000000E+01, 5.36050E-01, 5.50000E-03,0,
 7.160000000E+01, 4.71500E-01, 5.50000E-03,0,
 7.165000000E+01, 5.13600E-01, 4.93050E+00,0,
 7.170000000E+01, 5.47150E-01, 4.93050E+00,0,
 7.175000000E+01, 5.34350E-01, 5.50000E-03,0,
 7.180000000E+01, 4.80000E-01, 5.50000E-03,0,
 7.185000000E+01, 4.38600E-01, 6.00000E-03,0,
 7.190000000E+01, 3.96550E-01, 4.93000E+00,0,
 7.195000000E+01, 3.18700E-01, 6.00000E-03,0,
 7.200000000E+01, 2.30600E-01, 6.00000E-03,0,
 7.205000000E+01, 3.62350E-01, 5.50000E-03,0,
 7.210000000E+01, 4.36450E-01, 4.93050E+00,0,
 7.215000000E+01, 4.65450E-01, 5.50000E-03,0,
 7.220000000E+01, 4.76650E-01, 5.50000E-03,0,
 7.225000000E+01, 4.66850E-01, 5.50000E-03,0,
 7.230000000E+01, 5.17950E-01, 5.50000E-03,0,
 7.235000000E+01, 5.21700E-01, 4.93050E+00,0,
 7.240000000E+01, 5.15850E-01, 5.50000E-03,0,
 7.245000000E+01, 5.04100E-01, 5.50000E-03,0,
 7.250000000E+01, 4.94850E-01, 4.93050E+00,0,
 7.255000000E+01, 4.99750E-01, 4.93000E+00,0,
 7.260000000E+01, 4.62500E-01, 5.50000E-03,0,
 7.265000000E+01, 5.01950E-01, 5.50000E-03,0,
 7.270000000E+01, 4.86350E-01, 5.50000E-03,0,
 7.275000000E+01, 4.67750E-01, 4.93000E+00,0,
 7.280000000E+01, 4.09000E-01, 5.50000E-03,0,
 7.285000000E+01, 3.41150E-01, 6.00000E-03,0,
 7.290000000E+01, 3.93900E-01, 5.50000E-03,0,
 7.295000000E+01, 4.82200E-01, 4.93050E+00,0,
 7.300000000E+01, 5.36400E-01, 5.00000E-03,0,
 7.305000000E+01, 5.20150E-01, 5.50000E-03,0,
 7.310000000E+01, 4.87000E-01, 5.50000E-03,0,
 7.315000000E+01, 4.61700E-01, 5.50000E-03,0,
 7.320000000E+01, 4.27100E-01, 4.93050E+00,0,
 7.325000000E+01, 4.58400E-01, 5.50000E-03,0,
 7.330000000E+01, 4.61350E-01, 5.50000E-03,0,
 7.335000000E+01, 4.76300E-01, 4.93000E+00,0,
 7.340000000E+01, 4.69350E-01, 4.93050E+00,0,
 7.345000000E+01, 4.18200E-01, 5.50000E-03,0,
 7.350000000E+01, 3.99400E-01, 5.50000E-03,0,
 7.355000000E+01, 2.43400E-01, 4.93000E+00,0,
 7.360000000E+01, 3.66900E-01, 5.50000E-03,0,
 7.365000000E+01, 3.16800E-01, 5.50000E-03,0,
 7.370000000E+01, 3.38400E-01, 5.50000E-03,0,
 7.375000000E+01, 3.51850E-01, 4.93000E+00,0,
 7.380000000E+01, 4.72200E-01, 5.50000E-03,0,
 7.385000000E+01, 5.16000E-01, 5.50000E-03,0,
 7.390000000E+01, 5.34550E-01, 5.50000E-03,0,
 7.395000000E+01, 5.24050E-01, 4.93050E+00,0,
 7.400000000E+01, 4.99550E-01, 5.50000E-03,0,
 7.405000000E+01, 3.96150E-01, 5.50000E-03,0,
 7.410000000E+01, 2.71050E-01, 2.72050E+00,0,
 7.415000000E+01, 4.38200E-01, 4.93050E+00,0,
 7.420000000E+01, 4.73400E-01, 5.50000E-03,0,
 7.425000000E+01, 4.74350E-01, 5.50000E-03,0,
 7.430000000E+01, 4.85850E-01, 4.93000E+00,0,
 7.435000000E+01, 4.83400E-01, 4.93000E+00,0,
 7.440000000E+01, 4.94900E-01, 5.50000E-03,0,
 7.445000000E+01, 5.16650E-01, 6.00000E-03,0,
 7.450000000E+01, 5.60150E-01, 4.93000E+00,0,
 7.455000000E+01, 5.71000E-01, 5.50000E-03,0,
 7.460000000E+01, 5.45200E-01, 5.50000E-03,0,
 7.465000000E+01, 5.37300E-01, 5.50000E-03,0,
 7.470000000E+01, 4.96450E-01, 4.93000E+00,0,
 7.475000000E+01, 4.94100E-01, 5.50000E-03,0,
 7.480000000E+01, 5.15550E-01, 5.50000E-03,0,
 7.485000000E+01, 5.28100E-01, 4.93050E+00,0,
 7.490000000E+01, 5.19300E-01, 4.93000E+00,0,
 7.495000000E+01, 5.00300E-01, 5.50000E-03,0,
 7.500000000E+01, 4.92950E-01, 5.50000E-03,0,
 7.505000000E+01, 4.98550E-01, 4.93000E+00,0,
 7.510000000E+01, 5.00150E-01, 5.50000E-03,0,
 7.515000000E+01, 5.35850E-01, 5.50000E-03,0,
 7.520000000E+01, 4.88600E-01, 5.50000E-03,0,
 7.525000000E+01, 4.69350E-01, 4.93000E+00,0,
 7.530000000E+01, 4.54250E-01, 5.50000E-03,0,
 7.535000000E+01, 4.75400E-01, 5.50000E-03,0,
 7.540000000E+01, 4.92800E-01, 4.93000E+00,0,
 7.545000000E+01, 4.88200E-01, 5.50000E-03,0,
 7.550000000E+01, 4.99100E-01, 5.50000E-03,0,
 7.555000000E+01, 5.30200E-01, 4.93050E+00,0,
 7.560000000E+01, 5.30450E-01, 5.50000E-03,0,
 7.565000000E+01, 5.38250E-01, 5.50000E-03,0,
 7.570000000E+01, 5.28050E-01, 5.50000E-03,0,
 7.575000000E+01, 4.86100E-01, 4.93000E+00,0,
 7.580000000E+01, 3.96100E-01, 5.50000E-03,0,
 7.585000000E+01, 4.72850E-01, 5.50000E-03,0,
 7.590000000E+01, 5.36600E-01, 5.50000E-03,0,
 7.595000000E+01, 5.73950E-01, 4.93050E+00,0,
 7.600000000E+01, 5.69950E-01, 5.50000E-03,0,
 7.605000000E+01, 5.48800E-01, 5.50000E-03,0,
 7.610000000E+01, 4.49850E-01, 5.50000E-03,0,
 7.615000000E+01, 3.77100E-01, 4.93050E+00,0,
 7.620000000E+01, 4.42350E-01, 5.50000E-03,0,
 7.625000000E+01, 4.96050E-01, 5.50000E-03,0,
 7.630000000E+01, 5.24200E-01, 5.50000E-03,0,
 7.635000000E+01, 5.59600E-01, 4.93050E+00,0,
 7.640000000E+01, 5.19800E-01, 5.50000E-03,0,
 7.645000000E+01, 4.80950E-01, 5.50000E-03,0,
 7.650000000E+01, 4.40900E-01, 5.50000E-03,0,
 7.655000000E+01, 4.17400E-01, 4.93000E+00,0,
 7.660000000E+01, 4.11100E-01, 4.93000E+00,0,
 7.665000000E+01, 4.61350E-01, 5.50000E-03,0,
 7.670000000E+01, 4.97300E-01, 5.50000E-03,0,
 7.675000000E+01, 5.51900E-01, 4.93050E+00,0,
 7.680000000E+01, 5.36450E-01, 5.50000E-03,0,
 7.685000000E+01, 5.27100E-01, 5.50000E-03,0,
 7.690000000E+01, 4.95650E-01, 5.50000E-03,0,
 7.695000000E+01, 4.50350E-01, 4.93000E+00,0,
 7.700000000E+01, 2.98800E-01, 5.50000E-03,0,
 7.705000000E+01, 4.09500E-01, 5.50000E-03,0,
 7.710000000E+01, 4.77700E-01, 5.50000E-03,0,
 7.715000000E+01, 4.95100E-01, 4.93000E+00,0,
 7.720000000E+01, 5.05500E-01, 5.50000E-03,0,
 7.725000000E+01, 5.20550E-01, 5.50000E-03,0,
 7.730000000E+01, 5.00050E-01, 4.93000E+00,0,
 7.735000000E+01, 4.55900E-01, 5.50000E-03,0,
 7.740000000E+01, 3.25550E-01, 5.50000E-03,0,
 7.745000000E+01, 3.57550E-01, 5.50000E-03,0,
 7.750000000E+01, 4.51050E-01, 4.93050E+00,0,
 7.755000000E+01, 4.19850E-01, 5.50000E-03,0,
 7.760000000E+01, 4.89350E-01, 5.50000E-03,0,
 7.765000000E+01, 4.85900E-01, 5.50000E-03,0,
 7.770000000E+01, 4.52100E-01, 4.93000E+00,0,
 7.775000000E+01, 4.15800E-01, 6.00000E-03,0,
 7.780000000E+01, 4.58150E-01, 5.50000E-03,0,
 7.785000000E+01, 4.73950E-01, 4.93000E+00,0,
 7.790000000E+01, 4.80300E-01, 5.50000E-03,0,
 7.795000000E+01, 4.88750E-01, 5.50000E-03,0,
 7.800000000E+01, 4.79350E-01, 5.50000E-03,0,
 7.805000000E+01, 4.80000E-01, 4.93000E+00,0,
 7.810000000E+01, 4.66450E-01, 5.50000E-03,0,
 7.815000000E+01, 3.73350E-01, 5.50000E-03,0,
 7.820000000E+01, 3.30550E-01, 4.93050E+00,0,
 7.825000000E+01, 4.12750E-01, 5.50000E-03,0,
 7.830000000E+01, 4.64250E-01, 5.50000E-03,0,
 7.835000000E+01, 4.70550E-01, 5.50000E-03,0,
 7.840000000E+01, 4.51450E-01, 4.93000E+00,0,
 7.845000000E+01, 4.48250E-01, 5.50000E-03,0,
 7.850000000E+01, 3.89400E-01, 5.50000E-03,0,
 7.855000000E+01, 3.48500E-01, 4.93000E+00,0,
 7.860000000E+01, 4.35000E-01, 5.50000E-03,0,
 7.865000000E+01, 4.04600E-01, 5.50000E-03,0,
 7.870000000E+01, 4.28400E-01, 5.50000E-03,0,
 7.875000000E+01, 4.23550E-01, 4.93000E+00,0,
 7.880000000E+01, 3.96850E-01, 6.00000E-03,0,
 7.885000000E+01, 4.10000E-01, 5.50000E-03,0,
 7.890000000E+01, 4.37150E-01, 5.50000E-03,0,
 7.895000000E+01, 4.64100E-01, 5.50000E-03,0,
 7.900000000E+01, 4.57700E-01, 4.93000E+00,0,
 7.905000000E+01, 4.56550E-01, 6.00000E-03,0,
 7.910000000E+01, 4.55350E-01, 6.00000E-03,0,
 7.915000000E+01, 3.84600E-01, 5.50000E-03,0,
 7.920000000E+01, 4.15500E-01, 4.93000E+00,0,
 7.925000000E+01, 4.80500E-01, 5.50000E-03,0,
 7.930000000E+01, 5.07500E-01, 5.50000E-03,0,
 7.935000000E+01, 4.94700E-01, 4.93000E+00,0,
 7.940000000E+01, 5.00950E-01, 4.93000E+00,0,
 7.945000000E+01, 5.30350E-01, 5.50000E-03,0,
 7.950000000E+01, 5.48850E-01, 5.50000E-03,0,
 7.955000000E+01, 5.64350E-01, 6.00000E-03,0,
 7.960000000E+01, 5.59800E-01, 4.93000E+00,0,
 7.965000000E+01, 5.49100E-01, 6.00000E-03,0,
 7.970000000E+01, 4.95200E-01, 6.00000E-03,0,
 7.975000000E+01, 5.32350E-01, 5.50000E-03,0,
 7.980000000E+01, 5.31150E-01, 4.93000E+00,0,
 7.985000000E+01, 5.33400E-01, 5.50000E-03,0,
 7.990000000E+01, 5.62750E-01, 5.50000E-03,0,
 7.995000000E+01, 5.46050E-01, 5.50000E-03,0,
 8.000000000E+01, 5.27750E-01, 4.93050E+00,0,
 8.005000000E+01, 4.99550E-01, 4.93000E+00,0,
 8.010000000E+01, 4.62900E-01, 5.50000E-03,0,
 8.015000000E+01, 4.06250E-01, 5.50000E-03,0,
 8.020000000E+01, 3.52700E-01, 4.93050E+00,0,
 8.025000000E+01, 4.06000E-01, 5.50000E-03,0,
 8.030000000E+01, 4.28650E-01, 5.50000E-03,0,
 8.035000000E+01, 4.62200E-01, 5.50000E-03,0,
 8.040000000E+01, 4.72350E-01, 4.93000E+00,0,
 8.045000000E+01, 4.68700E-01, 4.93050E+00,0,
 8.050000000E+01, 4.45500E-01, 5.50000E-03,0,
 8.055000000E+01, 4.32450E-01, 5.50000E-03,0,
 8.060000000E+01, 4.65050E-01, 5.50000E-03,0,
 8.065000000E+01, 4.95300E-01, 4.93000E+00,0,
 8.070000000E+01, 5.35050E-01, 5.50000E-03,0,
 8.075000000E+01, 5.48450E-01, 6.00000E-03,0,
 8.080000000E+01, 5.52800E-01, 5.50000E-03,0,
 8.085000000E+01, 5.54200E-01, 4.93050E+00,0,
 8.090000000E+01, 5.47250E-01, 5.50000E-03,0,
 8.095000000E+01, 5.27250E-01, 5.50000E-03,0,
 8.100000000E+01, 4.78700E-01, 6.00000E-03,0,
 8.105000000E+01, 4.20750E-01, 4.93000E+00,0,
 8.110000000E+01, 4.37650E-01, 5.50000E-03,0,
 8.115000000E+01, 5.07100E-01, 5.50000E-03,0,
 8.120000000E+01, 5.54750E-01, 5.50000E-03,0,
 8.125000000E+01, 5.65600E-01, 4.93000E+00,0,
 8.130000000E+01, 5.71900E-01, 4.93000E+00,0,
 8.135000000E+01, 5.72550E-01, 5.50000E-03,0,
 8.140000000E+01, 5.64550E-01, 5.50000E-03,0,
 8.145000000E+01, 5.75450E-01, 5.50000E-03,0,
 8.150000000E+01, 5.85000E-01, 4.93050E+00,0,
 8.155000000E+01, 5.87750E-01, 5.50000E-03,0,
 8.160000000E+01, 5.82900E-01, 5.50000E-03,0,
 8.165000000E+01, 5.75950E-01, 6.00000E-03,0,
 8.170000000E+01, 5.47300E-01, 4.93000E+00,0,
 8.175000000E+01, 5.06700E-01, 5.50000E-03,0,
 8.180000000E+01, 4.90150E-01, 5.50000E-03,0,
 8.185000000E+01, 5.10700E-01, 5.50000E-03,0,
 8.190000000E+01, 5.51500E-01, 4.93000E+00,0,
 8.195000000E+01, 5.72300E-01, 5.50000E-03,0,
 8.200000000E+01, 5.43600E-01, 5.50000E-03,0,
 8.205000000E+01, 5.61150E-01, 5.50000E-03,0,
 8.210000000E+01, 5.64000E-01, 5.50000E-03,0,
 8.215000000E+01, 5.37050E-01, 4.93050E+00,0,
 8.220000000E+01, 5.01700E-01, 6.00000E-03,0,
 8.225000000E+01, 4.70600E-01, 5.50000E-03,0,
 8.230000000E+01, 4.80350E-01, 6.00000E-03,0,
 8.235000000E+01, 4.87900E-01, 5.50000E-03,0,
 8.240000000E+01, 4.76700E-01, 4.93050E+00,0,
 8.245000000E+01, 4.71150E-01, 6.00000E-03,0,
 8.250000000E+01, 4.62850E-01, 5.50000E-03,0,
 8.255000000E+01, 4.54650E-01, 5.50000E-03,0,
 8.260000000E+01, 4.71500E-01, 5.50000E-03,0,
 8.265000000E+01, 4.75750E-01, 4.93000E+00,0,
 8.270000000E+01, 4.78800E-01, 4.93000E+00,0,
 8.275000000E+01, 4.76850E-01, 5.50000E-03,0,
 8.280000000E+01, 4.80000E-01, 6.00000E-03,0,
 8.285000000E+01, 4.86300E-01, 4.93050E+00,0,
 8.290000000E+01, 5.38100E-01, 4.93000E+00,0,
 8.295000000E+01, 5.53250E-01, 6.00000E-03,0,
 8.300000000E+01, 5.66550E-01, 5.50000E-03,0,
 8.305000000E+01, 5.79500E-01, 6.00000E-03,0,
 8.310000000E+01, 5.78300E-01, 4.93050E+00,0,
 8.315000000E+01, 5.75600E-01, 5.50000E-03,0,
 8.320000000E+01, 5.74600E-01, 5.50000E-03,0,
 8.325000000E+01, 5.61600E-01, 5.50000E-03,0,
 8.330000000E+01, 5.38950E-01, 4.93050E+00,0,
 8.335000000E+01, 5.08200E-01, 6.00000E-03,0,
 8.340000000E+01, 5.16150E-01, 6.00000E-03,0,
 8.345000000E+01, 5.28600E-01, 5.50000E-03,0,
 8.350000000E+01, 5.23800E-01, 5.50000E-03,0,
 8.355000000E+01, 5.27400E-01, 4.93000E+00,0,
 8.360000000E+01, 5.20400E-01, 5.50000E-03,0,
 8.365000000E+01, 5.26100E-01, 5.50000E-03,0,
 8.370000000E+01, 5.42300E-01, 5.50000E-03,0,
 8.375000000E+01, 5.48800E-01, 4.93050E+00,0,
 8.380000000E+01, 5.54200E-01, 5.50000E-03,0,
 8.385000000E+01, 5.49000E-01, 5.50000E-03,0,
 8.390000000E+01, 5.31350E-01, 5.50000E-03,0,
 8.395000000E+01, 5.17750E-01, 6.00000E-03,0,
 8.400000000E+01, 5.00300E-01, 4.93000E+00,0,
 8.405000000E+01, 4.96950E-01, 4.93000E+00,0,
 8.410000000E+01, 4.87900E-01, 5.50000E-03,0,
 8.415000000E+01, 4.95200E-01, 5.50000E-03,0,
 8.420000000E+01, 5.04450E-01, 5.50000E-03,0,
 8.425000000E+01, 5.20150E-01, 5.50000E-03,0,
 8.430000000E+01, 5.27000E-01, 4.93050E+00,0,
 8.435000000E+01, 5.17300E-01, 5.50000E-03,0,
 8.440000000E+01, 4.79500E-01, 5.50000E-03,0,
 8.445000000E+01, 4.43550E-01, 5.50000E-03,0,
 8.450000000E+01, 4.18850E-01, 5.50000E-03,0,
 8.455000000E+01, 3.96250E-01, 4.93000E+00,0,
 8.460000000E+01, 4.20450E-01, 4.93000E+00,0,
 8.465000000E+01, 4.48350E-01, 5.50000E-03,0,
 8.470000000E+01, 4.63700E-01, 5.50000E-03,0,
 8.475000000E+01, 4.65000E-01, 5.50000E-03,0,
 8.480000000E+01, 4.71900E-01, 4.93000E+00,0,
 8.485000000E+01, 4.88300E-01, 4.93000E+00,0,
 8.490000000E+01, 4.89150E-01, 5.50000E-03,0,
 8.495000000E+01, 4.92700E-01, 5.50000E-03,0,
 8.500000000E+01, 4.88350E-01, 5.50000E-03,0,
 8.505000000E+01, 4.57750E-01, 5.50000E-03,0,
 8.510000000E+01, 4.17600E-01, 4.93000E+00,0,
 8.515000000E+01, 4.46000E-01, 5.50000E-03,0,
 8.520000000E+01, 4.43000E-01, 5.50000E-03,0,
 8.525000000E+01, 4.42650E-01, 6.00000E-03,0,
 8.530000000E+01, 4.65900E-01, 6.00000E-03,0,
 8.535000000E+01, 4.86500E-01, 4.93000E+00,0,
 8.540000000E+01, 4.96450E-01, 5.50000E-03,0,
 8.545000000E+01, 4.91900E-01, 5.50000E-03,0,
 8.550000000E+01, 4.94200E-01, 5.50000E-03,0,
 8.555000000E+01, 4.86650E-01, 5.50000E-03,0,
 8.560000000E+01, 4.95900E-01, 4.93050E+00,0,
 8.565000000E+01, 4.84400E-01, 4.93000E+00,0,
 8.570000000E+01, 4.60600E-01, 5.50000E-03,0,
 8.575000000E+01, 4.44550E-01, 6.00000E-03,0,
 8.580000000E+01, 4.45000E-01, 5.50000E-03,0,
 8.585000000E+01, 4.58800E-01, 4.93050E+00,0,
 8.590000000E+01, 4.81350E-01, 4.93000E+00,0,
 8.595000000E+01, 4.66650E-01, 6.00000E-03,0,
 8.600000000E+01, 4.83350E-01, 5.50000E-03,0,
 8.605000000E+01, 4.84750E-01, 5.50000E-03,0,
 8.610000000E+01, 4.60400E-01, 4.93000E+00,0,
 8.615000000E+01, 4.42100E-01, 4.93000E+00,0,
 8.620000000E+01, 3.40400E-01, 5.50000E-03,0,
 8.625000000E+01, 2.80850E-01, 5.50000E-03,0,
 8.630000000E+01, 3.39200E-01, 5.50000E-03,0,
 8.635000000E+01, 4.11000E-01, 4.93050E+00,0,
 8.640000000E+01, 3.93800E-01, 6.00000E-03,0,
 8.645000000E+01, 3.51600E-01, 5.50000E-03,0,
 8.650000000E+01, 3.56650E-01, 5.50000E-03,0,
 8.655000000E+01, 3.11300E-01, 5.50000E-03,0,
 8.660000000E+01, 4.10500E-01, 4.93000E+00,0,
 8.665000000E+01, 4.01700E-01, 5.50000E-03,0,
 8.670000000E+01, 3.43050E-01, 6.00000E-03,0,
 8.675000000E+01, 3.58350E-01, 5.50000E-03,0,
 8.680000000E+01, 3.72400E-01, 4.93000E+00,0,
 8.685000000E+01, 3.32950E-01, 4.93000E+00,0,
 8.690000000E+01, 2.88600E-01, 5.50000E-03,0,
 8.695000000E+01, 2.65450E-01, 6.00000E-03,0,
 8.700000000E+01, 4.18850E-01, 5.50000E-03,0,
 8.705000000E+01, 4.82800E-01, 5.50000E-03,0,
 8.710000000E+01, 5.08650E-01, 4.93000E+00,0,
 8.715000000E+01, 5.37050E-01, 4.93000E+00,0,
 8.720000000E+01, 5.54850E-01, 5.50000E-03,0,
 8.725000000E+01, 5.64150E-01, 5.50000E-03,0,
 8.730000000E+01, 5.56450E-01, 5.50000E-03,0,
 8.735000000E+01, 5.42200E-01, 4.93050E+00,0,
 8.740000000E+01, 5.32250E-01, 4.93050E+00,0,
 8.745000000E+01, 5.09750E-01, 5.50000E-03,0,
 8.750000000E+01, 4.78800E-01, 5.50000E-03,0,
 8.755000000E+01, 4.65900E-01, 5.50000E-03,0,
 8.760000000E+01, 4.29500E-01, 5.50000E-03,0,
 8.765000000E+01, 3.98350E-01, 5.50000E-03,0,
 8.770000000E+01, 4.16350E-01, 4.93000E+00,0,
 8.775000000E+01, 3.95800E-01, 4.93000E+00,0,
 8.780000000E+01, 3.91900E-01, 5.50000E-03,0,
 8.785000000E+01, 3.34350E-01, 5.50000E-03,0,
 8.790000000E+01, 3.82850E-01, 5.50000E-03,0,
 8.795000000E+01, 4.39800E-01, 5.50000E-03,0,
 8.800000000E+01, 4.66150E-01, 5.50000E-03,0,
 8.805000000E+01, 4.76300E-01, 5.50000E-03,0,
 8.810000000E+01, 4.54800E-01, 5.50000E-03,0,
 8.815000000E+01, 4.65950E-01, 5.50000E-03,0,
 8.820000000E+01, 4.71700E-01, 5.50000E-03,0,
 8.825000000E+01, 4.81600E-01, 5.50000E-03,0,
 8.830000000E+01, 4.81100E-01, 5.50000E-03,0,
 8.835000000E+01, 4.71100E-01, 4.93000E+00,0,
 8.840000000E+01, 4.63650E-01, 4.93000E+00,0,
 8.845000000E+01, 4.61500E-01, 4.93000E+00,0,
 8.850000000E+01, 4.55850E-01, 4.93000E+00,0,
 8.855000000E+01, 4.76000E-01, 4.93000E+00,0,
 8.860000000E+01, 4.86700E-01, 4.93000E+00,0,
 8.865000000E+01, 4.88750E-01, 4.93000E+00,0,
 8.870000000E+01, 4.91700E-01, 4.93000E+00,0,
 8.875000000E+01, 4.79550E-01, 4.93000E+00,0,
 8.880000000E+01, 4.45050E-01, 4.93050E+00,0,
 8.885000000E+01, 4.17900E-01, 4.93050E+00,0,
 8.890000000E+01, 4.39900E-01, 4.93000E+00,0,
 8.895000000E+01, 4.57800E-01, 4.93000E+00,0,
 8.900000000E+01, 4.63950E-01, 4.93000E+00,0,
 8.905000000E+01, 4.49950E-01, 4.93000E+00,0,
 8.910000000E+01, 4.53950E-01, 4.93000E+00,0,
 8.915000000E+01, 4.69100E-01, 4.93000E+00,0,
 8.920000000E+01, 4.77650E-01, 4.93050E+00,0,
 8.925000000E+01, 4.78150E-01, 4.93000E+00,0,
 8.930000000E+01, 4.80400E-01, 4.93000E+00,0,
 8.935000000E+01, 4.74800E-01, 4.93000E+00,0,
 8.940000000E+01, 4.68550E-01, 4.93050E+00,0,
 8.945000000E+01, 4.77000E-01, 4.93050E+00,0,
 8.950000000E+01, 4.88600E-01, 4.93050E+00,0,
 8.955000000E+01, 4.97150E-01, 4.93050E+00,0,
 8.960000000E+01, 5.02200E-01, 4.93000E+00,0,
 8.965000000E+01, 5.01600E-01, 4.93000E+00,0,
 8.970000000E+01, 5.26350E-01, 4.93000E+00,0,
 8.975000000E+01, 5.30500E-01, 4.93000E+00,0,
 8.980000000E+01, 5.25650E-01, 4.93050E+00,0,
 8.985000000E+01, 5.12200E-01, 4.93000E+00,0,
 8.990000000E+01, 4.87550E-01, 4.93000E+00,0,
 8.995000000E+01, 4.91200E-01, 4.93000E+00,0,
 9.000000000E+01, 5.16750E-01, 4.93000E+00,0,
 9.005000000E+01, 5.35800E-01, 4.93000E+00,0,
 9.010000000E+01, 5.43850E-01, 4.93000E+00,0,
 9.015000000E+01, 5.44500E-01, 4.93000E+00,0,
 9.020000000E+01, 5.41700E-01, 4.93050E+00,0,
 9.025000000E+01, 5.24400E-01, 4.93000E+00,0,
 9.030000000E+01, 4.92850E-01, 4.93050E+00,0,
 9.035000000E+01, 4.74200E-01, 4.93000E+00,0,
 9.040000000E+01, 5.13800E-01, 4.93050E+00,0,
 9.045000000E+01, 5.11100E-01, 4.93050E+00,0,
 9.050000000E+01, 5.28500E-01, 4.93000E+00,0,
 9.055000000E+01, 5.10050E-01, 4.93050E+00,0,
 9.060000000E+01, 4.83050E-01, 4.93000E+00,0,
 9.065000000E+01, 4.71150E-01, 4.93000E+00,0,
 9.070000000E+01, 4.55400E-01, 4.93000E+00,0,
 9.075000000E+01, 4.55700E-01, 4.93050E+00,0,
 9.080000000E+01, 4.76050E-01, 4.93000E+00,0,
 9.085000000E+01, 4.85700E-01, 4.93000E+00,0,
 9.090000000E+01, 4.94350E-01, 4.93000E+00,0,
 9.095000000E+01, 4.98450E-01, 4.93050E+00,0,
 9.100000000E+01, 4.94550E-01, 4.93000E+00,0,
 9.105000000E+01, 4.88450E-01, 4.93000E+00,0,
 9.110000000E+01, 4.83400E-01, 4.93000E+00,0,
 9.115000000E+01, 4.74600E-01, 4.93000E+00,0,
 9.120000000E+01, 4.64600E-01, 4.93000E+00,0,
 9.125000000E+01, 4.59800E-01, 4.93050E+00,0,
 9.130000000E+01, 4.58250E-01, 4.93050E+00,0,
 9.135000000E+01, 4.68150E-01, 4.93050E+00,0,
 9.140000000E+01, 4.85150E-01, 4.93000E+00,0,
 9.145000000E+01, 4.95150E-01, 4.93000E+00,0,
 9.150000000E+01, 5.04900E-01, 4.93050E+00,0,
 9.155000000E+01, 5.03150E-01, 4.93000E+00,0,
 9.160000000E+01, 5.10950E-01, 4.93000E+00,0,
 9.165000000E+01, 5.32450E-01, 4.93050E+00,0,
 9.170000000E+01, 5.42600E-01, 4.93000E+00,0,
 9.175000000E+01, 5.46350E-01, 4.93000E+00,0,
 9.180000000E+01, 5.52700E-01, 4.93000E+00,0,
 9.185000000E+01, 5.52350E-01, 4.93000E+00,0,
 9.190000000E+01, 5.51750E-01, 4.93000E+00,0,
 9.195000000E+01, 5.50150E-01, 4.93050E+00,0,
 9.200000000E+01, 5.52200E-01, 4.93000E+00,0,
 9.205000000E+01, 5.57350E-01, 4.93000E+00,0,
 9.210000000E+01, 5.40150E-01, 4.93000E+00,0,
 9.215000000E+01, 5.29850E-01, 4.93050E+00,0,
 9.220000000E+01, 5.31800E-01, 4.93000E+00,0,
 9.225000000E+01, 5.33550E-01, 4.93050E+00,0,
 9.230000000E+01, 5.25050E-01, 4.93000E+00,0,
 9.235000000E+01, 5.20050E-01, 4.93000E+00,0,
 9.240000000E+01, 5.17800E-01, 4.93000E+00,0,
 9.245000000E+01, 5.26950E-01, 4.93000E+00,0,
 9.250000000E+01, 5.15950E-01, 4.93000E+00,0,
 9.255000000E+01, 5.24600E-01, 4.93050E+00,0,
 9.260000000E+01, 5.44700E-01, 4.93000E+00,0,
 9.265000000E+01, 5.34000E-01, 4.93000E+00,0,
 9.270000000E+01, 5.34100E-01, 4.93050E+00,0,
 9.275000000E+01, 5.28900E-01, 4.93000E+00,0,
 9.280000000E+01, 5.25550E-01, 4.93000E+00,0,
 9.285000000E+01, 5.35750E-01, 4.93000E+00,0,
 9.290000000E+01, 5.37200E-01, 4.93000E+00,0,
 9.295000000E+01, 5.41600E-01, 4.93000E+00,0,
 9.300000000E+01, 5.40800E-01, 4.93000E+00,0,
 9.305000000E+01, 5.44050E-01, 4.93000E+00,0,
 9.310000000E+01, 5.38300E-01, 4.93000E+00,0,
 9.315000000E+01, 5.41800E-01, 4.93000E+00,0,
 9.320000000E+01, 5.37150E-01, 4.93000E+00,0,
 9.325000000E+01, 5.38300E-01, 4.93050E+00,0,
 9.330000000E+01, 5.37300E-01, 4.93000E+00,0,
 9.335000000E+01, 5.38450E-01, 4.93000E+00,0,
 9.340000000E+01, 5.35400E-01, 4.93000E+00,0,
 9.345000000E+01, 5.29650E-01, 4.93000E+00,0,
 9.350000000E+01, 5.26700E-01, 4.93000E+00,0,
 9.355000000E+01, 5.26200E-01, 4.93000E+00,0,
 9.360000000E+01, 5.22550E-01, 4.93000E+00,0,
 9.365000000E+01, 5.22900E-01, 4.93000E+00,0,
 9.370000000E+01, 5.23950E-01, 4.93000E+00,0,
 9.375000000E+01, 5.24900E-01, 4.93000E+00,0,
 9.380000000E+01, 5.29150E-01, 4.93000E+00,0,
 9.385000000E+01, 5.29050E-01, 4.93050E+00,0,
 9.390000000E+01, 5.36450E-01, 4.93050E+00,0,
 9.395000000E+01, 5.33350E-01, 4.93050E+00,0,
 9.400000000E+01, 5.39650E-01, 4.93000E+00,0,
 9.405000000E+01, 5.43300E-01, 4.93000E+00,0,
 9.410000000E+01, 5.38150E-01, 4.93000E+00,0,
 9.415000000E+01, 5.39900E-01, 4.93000E+00,0,
 9.420000000E+01, 5.40700E-01, 4.93000E+00,0,
 9.425000000E+01, 5.40250E-01, 4.93000E+00,0,
 9.430000000E+01, 5.38800E-01, 4.93000E+00,0,
 9.435000000E+01, 5.02950E-01, 4.93000E+00,0,
 9.440000000E+01, 5.32800E-01, 4.93000E+00,0,
 9.445000000E+01, 5.37750E-01, 4.93000E+00,0,
 9.450000000E+01, 5.32500E-01, 4.93000E+00,0,
 9.455000000E+01, 5.50400E-01, 4.93050E+00,0,
 9.460000000E+01, 5.32600E-01, 4.93050E+00,0,
 9.465000000E+01, 5.32150E-01, 4.93000E+00,0,
 9.470000000E+01, 5.30600E-01, 4.93050E+00,0,
 9.475000000E+01, 5.18150E-01, 4.93000E+00,0,
 9.480000000E+01, 5.36500E-01, 4.93050E+00,0,
 9.485000000E+01, 5.34900E-01, 4.93000E+00,0,
 9.490000000E+01, 5.33600E-01, 4.93000E+00,0,
 9.495000000E+01, 5.35150E-01, 4.93050E+00,0,
