"ファイル名","WAVE0003.CSV","V 1.11"
"タイトルコメント","試験122205"
"トリガ時刻","25-05-16 13:25:16"
"CH","Mode","Range","Comment","Scaling","Ratio","Offset"
"CH-3","電圧","1V","REC","OFF","-","-"
"CH-10","電圧","10V","PULSE","OFF","-","-"
"Time","CH-3[V]","CH-10[V]","Event",
 0.000000000E+00, 2.60950E-01, 5.50000E-03,0,
 5.000000000E-02, 2.56000E-01, 5.50000E-03,0,
 1.000000000E-01, 2.41650E-01, 5.50000E-03,0,
 1.500000000E-01, 2.33900E-01, 5.50000E-03,0,
 2.000000000E-01, 2.37400E-01, 5.50000E-03,0,
 2.500000000E-01, 2.60150E-01, 5.50000E-03,0,
 3.000000000E-01, 2.79300E-01, 5.50000E-03,0,
 3.500000000E-01, 2.82400E-01, 5.50000E-03,0,
 4.000000000E-01, 2.77350E-01, 6.00000E-03,0,
 4.500000000E-01, 2.93650E-01, 5.50000E-03,0,
 5.000000000E-01, 2.94550E-01, 5.50000E-03,0,
 5.500000000E-01, 3.06550E-01, 5.50000E-03,0,
 6.000000000E-01, 3.03700E-01, 5.50000E-03,0,
 6.500000000E-01, 3.11700E-01, 5.50000E-03,0,
 7.000000000E-01, 3.11000E-01, 5.50000E-03,0,
 7.500000000E-01, 3.00950E-01, 5.50000E-03,0,
 8.000000000E-01, 2.99700E-01, 5.50000E-03,0,
 8.500000000E-01, 2.99850E-01, 5.50000E-03,0,
 9.000000000E-01, 2.84200E-01, 5.50000E-03,0,
 9.500000000E-01, 2.75300E-01, 5.50000E-03,0,
 1.000000000E+00, 2.70850E-01, 5.50000E-03,0,
 1.050000000E+00, 2.59700E-01, 5.50000E-03,0,
 1.100000000E+00, 2.45800E-01, 5.50000E-03,0,
 1.150000000E+00, 2.24650E-01, 5.50000E-03,0,
 1.200000000E+00, 2.24600E-01, 5.50000E-03,0,
 1.250000000E+00, 2.03400E-01, 5.50000E-03,0,
 1.300000000E+00, 2.07000E-01, 5.50000E-03,0,
 1.350000000E+00, 2.16800E-01, 5.50000E-03,0,
 1.400000000E+00, 2.24300E-01, 5.50000E-03,0,
 1.450000000E+00, 2.19850E-01, 5.50000E-03,0,
 1.500000000E+00, 2.17500E-01, 5.50000E-03,0,
 1.550000000E+00, 2.23750E-01, 5.50000E-03,0,
 1.600000000E+00, 2.26000E-01, 5.50000E-03,0,
 1.650000000E+00, 2.25050E-01, 5.50000E-03,0,
 1.700000000E+00, 2.27300E-01, 5.50000E-03,0,
 1.750000000E+00, 2.18900E-01, 5.50000E-03,0,
 1.800000000E+00, 2.12750E-01, 5.50000E-03,0,
 1.850000000E+00, 2.05050E-01, 4.93000E+00,0,
 1.900000000E+00, 1.90700E-01, 4.93000E+00,0,
 1.950000000E+00, 1.56050E-01, 4.93000E+00,0,
 2.000000000E+00, 1.87150E-01, 4.93000E+00,0,
 2.050000000E+00, 2.01800E-01, 4.93000E+00,0,
 2.100000000E+00, 2.13750E-01, 5.50000E-03,0,
 2.150000000E+00, 2.13050E-01, 5.50000E-03,0,
 2.200000000E+00, 2.34250E-01, 5.50000E-03,0,
 2.250000000E+00, 2.26150E-01, 6.00000E-03,0,
 2.300000000E+00, 2.17650E-01, 5.50000E-03,0,
 2.350000000E+00, 1.74800E-01, 5.50000E-03,0,
 2.400000000E+00, 1.58600E-01, 5.50000E-03,0,
 2.450000000E+00, 2.12600E-01, 5.50000E-03,0,
 2.500000000E+00, 2.41000E-01, 5.50000E-03,0,
 2.550000000E+00, 2.54550E-01, 5.50000E-03,0,
 2.600000000E+00, 2.44750E-01, 5.50000E-03,0,
 2.650000000E+00, 2.32500E-01, 4.93000E+00,0,
 2.700000000E+00, 1.89000E-01, 4.93000E+00,0,
 2.750000000E+00, 1.48750E-01, 4.93000E+00,0,
 2.800000000E+00, 1.61450E-01, 4.93000E+00,0,
 2.850000000E+00, 1.55850E-01, 4.93000E+00,0,
 2.900000000E+00, 1.25700E-01, 4.93000E+00,0,
 2.950000000E+00, 1.38100E-01, 4.93000E+00,0,
 3.000000000E+00, 1.11050E-01, 6.00000E-03,0,
 3.050000000E+00, 1.29150E-01, 5.50000E-03,0,
 3.100000000E+00, 2.05300E-01, 5.50000E-03,0,
 3.150000000E+00, 2.50000E-01, 5.50000E-03,0,
 3.200000000E+00, 2.81400E-01, 5.50000E-03,0,
 3.250000000E+00, 2.85950E-01, 5.50000E-03,0,
 3.300000000E+00, 2.79750E-01, 5.50000E-03,0,
 3.350000000E+00, 2.86950E-01, 5.50000E-03,0,
 3.400000000E+00, 2.78050E-01, 5.50000E-03,0,
 3.450000000E+00, 2.75550E-01, 6.00000E-03,0,
 3.500000000E+00, 2.77000E-01, 6.00000E-03,0,
 3.550000000E+00, 2.77250E-01, 5.50000E-03,0,
 3.600000000E+00, 2.89950E-01, 5.50000E-03,0,
 3.650000000E+00, 2.94550E-01, 5.50000E-03,0,
 3.700000000E+00, 3.12150E-01, 5.50000E-03,0,
 3.750000000E+00, 3.06650E-01, 5.50000E-03,0,
 3.800000000E+00, 2.90600E-01, 4.93000E+00,0,
 3.850000000E+00, 2.47850E-01, 4.93000E+00,0,
 3.900000000E+00, 2.27850E-01, 5.50000E-03,0,
 3.950000000E+00, 2.62300E-01, 5.50000E-03,0,
 4.000000000E+00, 2.60200E-01, 5.50000E-03,0,
 4.050000000E+00, 2.82200E-01, 5.50000E-03,0,
 4.100000000E+00, 3.09950E-01, 5.50000E-03,0,
 4.150000000E+00, 3.13350E-01, 5.50000E-03,0,
 4.200000000E+00, 3.12900E-01, 4.93000E+00,0,
 4.250000000E+00, 3.02100E-01, 5.50000E-03,0,
 4.300000000E+00, 2.90700E-01, 5.50000E-03,0,
 4.350000000E+00, 2.68900E-01, 5.50000E-03,0,
 4.400000000E+00, 2.27850E-01, 5.50000E-03,0,
 4.450000000E+00, 2.21650E-01, 4.93000E+00,0,
 4.500000000E+00, 2.17050E-01, 4.93000E+00,0,
 4.550000000E+00, 2.36650E-01, 5.50000E-03,0,
 4.600000000E+00, 2.71050E-01, 5.50000E-03,0,
 4.650000000E+00, 2.85950E-01, 5.50000E-03,0,
 4.700000000E+00, 2.79550E-01, 4.93000E+00,0,
 4.750000000E+00, 2.81050E-01, 4.93000E+00,0,
 4.800000000E+00, 2.84350E-01, 5.50000E-03,0,
 4.850000000E+00, 2.90050E-01, 5.50000E-03,0,
 4.900000000E+00, 2.91400E-01, 5.50000E-03,0,
 4.950000000E+00, 2.95250E-01, 5.50000E-03,0,
 5.000000000E+00, 3.08500E-01, 5.50000E-03,0,
 5.050000000E+00, 3.03200E-01, 4.93000E+00,0,
 5.100000000E+00, 2.86200E-01, 4.93000E+00,0,
 5.150000000E+00, 2.32850E-01, 5.50000E-03,0,
 5.200000000E+00, 1.47750E-01, 5.50000E-03,0,
 5.250000000E+00,-1.16000E-02, 5.50000E-03,0,
 5.300000000E+00, 1.69400E-01, 5.50000E-03,0,
 5.350000000E+00, 2.28850E-01, 4.93000E+00,0,
 5.400000000E+00, 2.72600E-01, 4.93050E+00,0,
 5.450000000E+00, 2.56150E-01, 5.50000E-03,0,
 5.500000000E+00, 2.27500E-01, 5.50000E-03,0,
 5.550000000E+00, 2.51100E-01, 5.50000E-03,0,
 5.600000000E+00, 2.63650E-01, 5.50000E-03,0,
 5.650000000E+00, 2.64650E-01, 5.50000E-03,0,
 5.700000000E+00, 2.81400E-01, 4.93000E+00,0,
 5.750000000E+00, 2.80950E-01, 4.93000E+00,0,
 5.800000000E+00, 2.66300E-01, 5.50000E-03,0,
 5.850000000E+00, 1.82550E-01, 5.50000E-03,0,
 5.900000000E+00, 1.10850E-01, 5.50000E-03,0,
 5.950000000E+00, 1.62700E-01, 4.93000E+00,0,
 6.000000000E+00, 2.48750E-01, 4.93000E+00,0,
 6.050000000E+00, 3.13550E-01, 5.50000E-03,0,
 6.100000000E+00, 3.16600E-01, 5.50000E-03,0,
 6.150000000E+00, 3.26050E-01, 5.50000E-03,0,
 6.200000000E+00, 3.30300E-01, 5.50000E-03,0,
 6.250000000E+00, 3.13750E-01, 5.50000E-03,0,
 6.300000000E+00, 3.03050E-01, 4.93000E+00,0,
 6.350000000E+00, 2.97250E-01, 4.93000E+00,0,
 6.400000000E+00, 3.12100E-01, 5.50000E-03,0,
 6.450000000E+00, 3.24600E-01, 5.50000E-03,0,
 6.500000000E+00, 3.47000E-01, 5.50000E-03,0,
 6.550000000E+00, 3.61550E-01, 4.93050E+00,0,
 6.600000000E+00, 3.66750E-01, 5.50000E-03,0,
 6.650000000E+00, 3.74900E-01, 5.50000E-03,0,
 6.700000000E+00, 3.78250E-01, 5.50000E-03,0,
 6.750000000E+00, 3.72100E-01, 4.93000E+00,0,
 6.800000000E+00, 3.65250E-01, 4.93000E+00,0,
 6.850000000E+00, 3.66650E-01, 5.50000E-03,0,
 6.900000000E+00, 3.67500E-01, 5.50000E-03,0,
 6.950000000E+00, 3.66800E-01, 4.93000E+00,0,
 7.000000000E+00, 3.60650E-01, 4.93000E+00,0,
 7.050000000E+00, 3.58550E-01, 5.50000E-03,0,
 7.100000000E+00, 3.57900E-01, 5.50000E-03,0,
 7.150000000E+00, 3.46700E-01, 5.50000E-03,0,
 7.200000000E+00, 3.49800E-01, 5.50000E-03,0,
 7.250000000E+00, 3.56600E-01, 4.93000E+00,0,
 7.300000000E+00, 3.51350E-01, 5.50000E-03,0,
 7.350000000E+00, 3.41600E-01, 5.50000E-03,0,
 7.400000000E+00, 3.33100E-01, 5.50000E-03,0,
 7.450000000E+00, 3.33200E-01, 5.50000E-03,0,
 7.500000000E+00, 3.19750E-01, 4.93000E+00,0,
 7.550000000E+00, 3.13400E-01, 5.50000E-03,0,
 7.600000000E+00, 3.34550E-01, 5.50000E-03,0,
 7.650000000E+00, 3.52500E-01, 5.50000E-03,0,
 7.700000000E+00, 3.48200E-01, 5.50000E-03,0,
 7.750000000E+00, 3.40300E-01, 4.93000E+00,0,
 7.800000000E+00, 3.06700E-01, 5.50000E-03,0,
 7.850000000E+00, 2.73500E-01, 5.50000E-03,0,
 7.900000000E+00, 2.27050E-01, 5.50000E-03,0,
 7.950000000E+00, 2.44200E-01, 4.93000E+00,0,
 8.000000000E+00, 2.92100E-01, 5.50000E-03,0,
 8.050000000E+00, 3.30300E-01, 5.50000E-03,0,
 8.100000000E+00, 3.31250E-01, 5.50000E-03,0,
 8.150000000E+00, 3.30750E-01, 4.93000E+00,0,
 8.200000000E+00, 3.11950E-01, 3.65300E+00,0,
 8.250000000E+00, 3.51800E-01, 5.50000E-03,0,
 8.300000000E+00, 3.52800E-01, 6.00000E-03,0,
 8.350000000E+00, 3.63800E-01, 4.93000E+00,0,
 8.400000000E+00, 3.61400E-01, 5.50000E-03,0,
 8.450000000E+00, 3.66200E-01, 5.50000E-03,0,
 8.500000000E+00, 3.41400E-01, 5.50000E-03,0,
 8.550000000E+00, 2.72450E-01, 4.93000E+00,0,
 8.600000000E+00, 2.31650E-01, 4.93000E+00,0,
 8.650000000E+00, 2.40900E-01, 5.50000E-03,0,
 8.700000000E+00, 2.45800E-01, 5.50000E-03,0,
 8.750000000E+00, 2.34900E-01, 4.93050E+00,0,
 8.800000000E+00, 1.85550E-01, 4.93000E+00,0,
 8.850000000E+00, 1.03950E-01, 5.50000E-03,0,
 8.900000000E+00,-2.87000E-02, 5.50000E-03,0,
 8.950000000E+00, 1.70000E-01, 5.50000E-03,0,
 9.000000000E+00, 2.30700E-01, 5.50000E-03,0,
 9.050000000E+00, 2.72350E-01, 4.93000E+00,0,
 9.100000000E+00, 2.78700E-01, 4.93000E+00,0,
 9.150000000E+00, 2.66300E-01, 4.93000E+00,0,
 9.200000000E+00, 2.19200E-01, 4.93000E+00,0,
 9.250000000E+00, 1.62150E-01, 4.93000E+00,0,
 9.300000000E+00, 2.20000E-03, 4.93000E+00,0,
 9.350000000E+00, 2.05500E-01, 4.93000E+00,0,
 9.400000000E+00, 2.86650E-01, 4.93000E+00,0,
 9.450000000E+00, 3.13900E-01, 4.93000E+00,0,
 9.500000000E+00, 3.12900E-01, 4.93000E+00,0,
 9.550000000E+00, 3.15750E-01, 4.93000E+00,0,
 9.600000000E+00, 3.19100E-01, 4.93050E+00,0,
 9.650000000E+00, 3.10200E-01, 4.93050E+00,0,
 9.700000000E+00, 3.17700E-01, 4.93000E+00,0,
 9.750000000E+00, 3.41750E-01, 4.93000E+00,0,
 9.800000000E+00, 3.58600E-01, 4.93000E+00,0,
 9.850000000E+00, 3.62050E-01, 4.93050E+00,0,
 9.900000000E+00, 3.46300E-01, 4.93000E+00,0,
 9.950000000E+00, 3.05050E-01, 4.93000E+00,0,
 1.000000000E+01, 2.97150E-01, 4.93050E+00,0,
 1.005000000E+01, 3.28600E-01, 4.93050E+00,0,
 1.010000000E+01, 3.50450E-01, 4.93050E+00,0,
 1.015000000E+01, 3.46400E-01, 4.93050E+00,0,
 1.020000000E+01, 3.43500E-01, 4.93050E+00,0,
 1.025000000E+01, 3.11050E-01, 4.93050E+00,0,
 1.030000000E+01, 2.66500E-01, 4.93000E+00,0,
 1.035000000E+01, 2.56600E-01, 4.93000E+00,0,
 1.040000000E+01, 2.80350E-01, 4.93000E+00,0,
 1.045000000E+01, 2.97650E-01, 5.50000E-03,0,
 1.050000000E+01, 3.05550E-01, 5.50000E-03,0,
 1.055000000E+01, 2.94650E-01, 4.93000E+00,0,
 1.060000000E+01, 2.31100E-01, 5.50000E-03,0,
 1.065000000E+01, 1.13200E-01, 5.50000E-03,0,
 1.070000000E+01, 2.13300E-01, 5.50000E-03,0,
 1.075000000E+01, 2.66450E-01, 4.93000E+00,0,
 1.080000000E+01, 2.77050E-01, 5.50000E-03,0,
 1.085000000E+01, 2.78500E-01, 5.50000E-03,0,
 1.090000000E+01, 2.37850E-01, 4.93050E+00,0,
 1.095000000E+01, 2.16250E-01, 4.93000E+00,0,
 1.100000000E+01, 2.57500E-01, 6.00000E-03,0,
 1.105000000E+01, 3.38700E-01, 5.50000E-03,0,
 1.110000000E+01, 3.88550E-01, 4.93000E+00,0,
 1.115000000E+01, 3.94900E-01, 5.50000E-03,0,
 1.120000000E+01, 3.95900E-01, 5.50000E-03,0,
 1.125000000E+01, 3.99550E-01, 4.93000E+00,0,
 1.130000000E+01, 4.12300E-01, 5.50000E-03,0,
 1.135000000E+01, 4.31350E-01, 5.50000E-03,0,
 1.140000000E+01, 4.32950E-01, 5.50000E-03,0,
 1.145000000E+01, 4.21300E-01, 4.93000E+00,0,
 1.150000000E+01, 3.92800E-01, 5.50000E-03,0,
 1.155000000E+01, 3.39200E-01, 5.50000E-03,0,
 1.160000000E+01, 3.08600E-01, 4.93050E+00,0,
 1.165000000E+01, 3.36250E-01, 5.50000E-03,0,
 1.170000000E+01, 3.52650E-01, 5.50000E-03,0,
 1.175000000E+01, 3.56550E-01, 5.50000E-03,0,
 1.180000000E+01, 3.67400E-01, 4.93000E+00,0,
 1.185000000E+01, 3.66800E-01, 5.50000E-03,0,
 1.190000000E+01, 3.72500E-01, 5.50000E-03,0,
 1.195000000E+01, 3.78850E-01, 4.93000E+00,0,
 1.200000000E+01, 3.81800E-01, 5.50000E-03,0,
 1.205000000E+01, 3.72800E-01, 5.50000E-03,0,
 1.210000000E+01, 3.43250E-01, 4.02000E-01,0,
 1.215000000E+01, 3.13250E-01, 3.83950E+00,0,
 1.220000000E+01, 2.65050E-01, 5.50000E-03,0,
 1.225000000E+01, 2.83900E-01, 4.93000E+00,0,
 1.230000000E+01, 3.06900E-01, 5.50000E-03,0,
 1.235000000E+01, 2.97850E-01, 5.50000E-03,0,
 1.240000000E+01, 2.82300E-01, 5.50000E-03,0,
 1.245000000E+01, 2.21300E-01, 4.93000E+00,0,
 1.250000000E+01, 2.13300E-01, 5.50000E-03,0,
 1.255000000E+01, 2.44150E-01, 5.50000E-03,0,
 1.260000000E+01, 2.82050E-01, 4.93050E+00,0,
 1.265000000E+01, 3.08250E-01, 5.50000E-03,0,
 1.270000000E+01, 3.11200E-01, 5.50000E-03,0,
 1.275000000E+01, 2.76850E-01, 4.93000E+00,0,
 1.280000000E+01, 2.30750E-01, 4.93000E+00,0,
 1.285000000E+01, 1.50850E-01, 5.50000E-03,0,
 1.290000000E+01, 1.74000E-01, 6.00000E-03,0,
 1.295000000E+01, 2.47750E-01, 4.93050E+00,0,
 1.300000000E+01, 3.18950E-01, 5.50000E-03,0,
 1.305000000E+01, 3.43200E-01, 5.50000E-03,0,
 1.310000000E+01, 3.42200E-01, 5.50000E-03,0,
 1.315000000E+01, 3.22500E-01, 4.93000E+00,0,
 1.320000000E+01, 2.62100E-01, 5.50000E-03,0,
 1.325000000E+01, 1.54450E-01, 5.50000E-03,0,
 1.330000000E+01, 1.01000E-02, 4.92500E+00,0,
 1.335000000E+01, 1.43450E-01, 5.50000E-03,0,
 1.340000000E+01, 2.21200E-01, 5.50000E-03,0,
 1.345000000E+01, 2.54950E-01, 6.00000E-03,0,
 1.350000000E+01, 2.98700E-01, 4.93000E+00,0,
 1.355000000E+01, 3.23250E-01, 5.50000E-03,0,
 1.360000000E+01, 3.05400E-01, 5.50000E-03,0,
 1.365000000E+01, 2.74450E-01, 4.93000E+00,0,
 1.370000000E+01, 2.40400E-01, 4.93050E+00,0,
 1.375000000E+01, 2.58150E-01, 5.50000E-03,0,
 1.380000000E+01, 2.97700E-01, 5.50000E-03,0,
 1.385000000E+01, 3.18300E-01, 4.93000E+00,0,
 1.390000000E+01, 3.27250E-01, 5.50000E-03,0,
 1.395000000E+01, 3.18050E-01, 5.50000E-03,0,
 1.400000000E+01, 3.25100E-01, 5.50000E-03,0,
 1.405000000E+01, 3.25650E-01, 4.93000E+00,0,
 1.410000000E+01, 2.98850E-01, 5.50000E-03,0,
 1.415000000E+01, 2.71800E-01, 5.50000E-03,0,
 1.420000000E+01, 2.39050E-01, 5.50000E-03,0,
 1.425000000E+01, 1.53700E-01, 4.93050E+00,0,
 1.430000000E+01, 1.76350E-01, 5.50000E-03,0,
 1.435000000E+01, 2.31950E-01, 5.50000E-03,0,
 1.440000000E+01, 2.77550E-01, 4.93050E+00,0,
 1.445000000E+01, 2.72850E-01, 3.56250E+00,0,
 1.450000000E+01, 2.48650E-01, 5.50000E-03,0,
 1.455000000E+01, 1.30750E-01, 5.50000E-03,0,
 1.460000000E+01, 1.57350E-01, 4.93000E+00,0,
 1.465000000E+01, 2.76100E-01, 4.93050E+00,0,
 1.470000000E+01, 3.30700E-01, 5.50000E-03,0,
 1.475000000E+01, 3.48550E-01, 5.50000E-03,0,
 1.480000000E+01, 3.39500E-01, 4.93000E+00,0,
 1.485000000E+01, 3.11250E-01, 5.50000E-03,0,
 1.490000000E+01, 2.52700E-01, 5.50000E-03,0,
 1.495000000E+01, 2.64650E-01, 6.00000E-03,0,
 1.500000000E+01, 3.35750E-01, 4.93000E+00,0,
 1.505000000E+01, 3.76250E-01, 4.92900E+00,0,
 1.510000000E+01, 3.91000E-01, 5.50000E-03,0,
 1.515000000E+01, 3.88850E-01, 5.50000E-03,0,
 1.520000000E+01, 3.75100E-01, 4.93000E+00,0,
 1.525000000E+01, 3.67900E-01, 6.00000E-03,0,
 1.530000000E+01, 3.65150E-01, 5.50000E-03,0,
 1.535000000E+01, 3.61450E-01, 4.93050E+00,0,
 1.540000000E+01, 3.55750E-01, 5.50000E-03,0,
 1.545000000E+01, 3.37850E-01, 5.50000E-03,0,
 1.550000000E+01, 3.21050E-01, 1.66400E+00,0,
 1.555000000E+01, 2.87600E-01, 5.50000E-03,0,
 1.560000000E+01, 2.55700E-01, 5.50000E-03,0,
 1.565000000E+01, 2.73900E-01, 5.50000E-03,0,
 1.570000000E+01, 2.95300E-01, 4.93050E+00,0,
 1.575000000E+01, 3.18900E-01, 6.00000E-03,0,
 1.580000000E+01, 3.32950E-01, 5.50000E-03,0,
 1.585000000E+01, 3.36950E-01, 4.93000E+00,0,
 1.590000000E+01, 3.08750E-01, 5.50000E-03,0,
 1.595000000E+01, 2.58500E-01, 5.50000E-03,0,
 1.600000000E+01, 2.06950E-01, 5.50000E-03,0,
 1.605000000E+01, 2.09650E-01, 4.93050E+00,0,
 1.610000000E+01, 2.35850E-01, 5.50000E-03,0,
 1.615000000E+01, 2.97100E-01, 5.50000E-03,0,
 1.620000000E+01, 3.18500E-01, 4.85500E+00,0,
 1.625000000E+01, 3.39500E-01, 5.50000E-03,0,
 1.630000000E+01, 3.50150E-01, 5.50000E-03,0,
 1.635000000E+01, 3.34100E-01, 5.50000E-03,0,
 1.640000000E+01, 2.92500E-01, 4.93000E+00,0,
 1.645000000E+01, 2.98100E-01, 5.50000E-03,0,
 1.650000000E+01, 3.07800E-01, 5.50000E-03,0,
 1.655000000E+01, 3.05250E-01, 4.93050E+00,0,
 1.660000000E+01, 2.54550E-01, 5.50000E-03,0,
 1.665000000E+01, 2.06400E-01, 5.50000E-03,0,
 1.670000000E+01, 1.97900E-01, 5.50000E-03,0,
 1.675000000E+01, 3.08350E-01, 4.93000E+00,0,
 1.680000000E+01, 3.70400E-01, 5.50000E-03,0,
 1.685000000E+01, 3.84200E-01, 5.50000E-03,0,
 1.690000000E+01, 3.81500E-01, 4.93050E+00,0,
 1.695000000E+01, 3.61200E-01, 5.50000E-03,0,
 1.700000000E+01, 3.14950E-01, 5.50000E-03,0,
 1.705000000E+01, 2.40250E-01, 4.93050E+00,0,
 1.710000000E+01, 3.41800E-01, 5.50000E-03,0,
 1.715000000E+01, 3.90500E-01, 6.00000E-03,0,
 1.720000000E+01, 4.03700E-01, 4.93000E+00,0,
 1.725000000E+01, 3.94200E-01, 5.50000E-03,0,
 1.730000000E+01, 3.61450E-01, 5.50000E-03,0,
 1.735000000E+01, 3.07150E-01, 4.93000E+00,0,
 1.740000000E+01, 3.14900E-01, 6.00000E-03,0,
 1.745000000E+01, 3.47750E-01, 5.50000E-03,0,
 1.750000000E+01, 3.64250E-01, 4.93050E+00,0,
 1.755000000E+01, 3.59650E-01, 6.00000E-03,0,
 1.760000000E+01, 3.35450E-01, 5.50000E-03,0,
 1.765000000E+01, 3.40000E-01, 4.93000E+00,0,
 1.770000000E+01, 3.75250E-01, 6.00000E-03,0,
 1.775000000E+01, 3.97000E-01, 5.50000E-03,0,
 1.780000000E+01, 3.99850E-01, 4.93050E+00,0,
 1.785000000E+01, 3.90950E-01, 5.50000E-03,0,
 1.790000000E+01, 3.89100E-01, 5.50000E-03,0,
 1.795000000E+01, 3.90100E-01, 4.93050E+00,0,
 1.800000000E+01, 3.83600E-01, 5.50000E-03,0,
 1.805000000E+01, 3.74950E-01, 5.50000E-03,0,
 1.810000000E+01, 3.57000E-01, 4.93000E+00,0,
 1.815000000E+01, 3.51750E-01, 5.50000E-03,0,
 1.820000000E+01, 3.52000E-01, 5.50000E-03,0,
 1.825000000E+01, 3.41650E-01, 5.50000E-03,0,
 1.830000000E+01, 3.26500E-01, 4.93000E+00,0,
 1.835000000E+01, 3.01600E-01, 5.50000E-03,0,
 1.840000000E+01, 3.37850E-01, 5.50000E-03,0,
 1.845000000E+01, 3.66850E-01, 4.93050E+00,0,
 1.850000000E+01, 3.84700E-01, 6.00000E-03,0,
 1.855000000E+01, 3.96650E-01, 5.50000E-03,0,
 1.860000000E+01, 3.61050E-01, 4.93000E+00,0,
 1.865000000E+01, 3.08800E-01, 5.50000E-03,0,
 1.870000000E+01, 1.54900E-01, 5.50000E-03,0,
 1.875000000E+01, 2.40450E-01, 5.50000E-03,0,
 1.880000000E+01, 2.99500E-01, 4.93000E+00,0,
 1.885000000E+01, 3.16200E-01, 5.50000E-03,0,
 1.890000000E+01, 2.97300E-01, 6.00000E-03,0,
 1.895000000E+01, 2.52000E-01, 4.93000E+00,0,
 1.900000000E+01, 2.53000E-01, 6.00000E-03,0,
 1.905000000E+01, 3.18250E-01, 6.00000E-03,0,
 1.910000000E+01, 3.48700E-01, 4.93000E+00,0,
 1.915000000E+01, 3.56650E-01, 5.50000E-03,0,
 1.920000000E+01, 3.54200E-01, 5.50000E-03,0,
 1.925000000E+01, 3.36200E-01, 5.50000E-03,0,
 1.930000000E+01, 3.11050E-01, 4.93050E+00,0,
 1.935000000E+01, 3.11350E-01, 5.50000E-03,0,
 1.940000000E+01, 3.35700E-01, 5.50000E-03,0,
 1.945000000E+01, 3.39100E-01, 4.93000E+00,0,
 1.950000000E+01, 3.21050E-01, 5.50000E-03,0,
 1.955000000E+01, 3.05550E-01, 5.50000E-03,0,
 1.960000000E+01, 2.89700E-01, 4.78550E+00,0,
 1.965000000E+01, 2.54250E-01, 4.93000E+00,0,
 1.970000000E+01, 2.03500E-01, 5.50000E-03,0,
 1.975000000E+01, 2.16450E-01, 9.00000E-03,0,
 1.980000000E+01, 2.46650E-01, 4.93000E+00,0,
 1.985000000E+01, 2.96450E-01, 5.50000E-03,0,
 1.990000000E+01, 3.23450E-01, 5.50000E-03,0,
 1.995000000E+01, 3.59000E-01, 4.93050E+00,0,
 2.000000000E+01, 3.91850E-01, 5.50000E-03,0,
 2.005000000E+01, 4.13850E-01, 5.50000E-03,0,
 2.010000000E+01, 4.17250E-01, 4.93050E+00,0,
 2.015000000E+01, 4.06450E-01, 5.50000E-03,0,
 2.020000000E+01, 3.81000E-01, 5.50000E-03,0,
 2.025000000E+01, 3.40650E-01, 5.50000E-03,0,
 2.030000000E+01, 3.26500E-01, 4.93000E+00,0,
 2.035000000E+01, 3.31850E-01, 5.50000E-03,0,
 2.040000000E+01, 3.29300E-01, 5.50000E-03,0,
 2.045000000E+01, 3.06600E-01, 4.93050E+00,0,
 2.050000000E+01, 2.31150E-01, 6.00000E-03,0,
 2.055000000E+01, 3.08450E-01, 5.50000E-03,0,
 2.060000000E+01, 3.59400E-01, 5.50000E-03,0,
 2.065000000E+01, 3.84850E-01, 4.93050E+00,0,
 2.070000000E+01, 4.09500E-01, 5.50000E-03,0,
 2.075000000E+01, 4.07000E-01, 5.50000E-03,0,
 2.080000000E+01, 3.92850E-01, 4.93000E+00,0,
 2.085000000E+01, 3.65200E-01, 5.50000E-03,0,
 2.090000000E+01, 3.03800E-01, 5.50000E-03,0,
 2.095000000E+01, 2.05300E-01, 5.50000E-03,0,
 2.100000000E+01, 2.44450E-01, 4.93000E+00,0,
 2.105000000E+01, 3.28800E-01, 5.50000E-03,0,
 2.110000000E+01, 3.55550E-01, 5.50000E-03,0,
 2.115000000E+01, 3.72650E-01, 5.50000E-03,0,
 2.120000000E+01, 3.70550E-01, 4.93000E+00,0,
 2.125000000E+01, 3.53750E-01, 5.50000E-03,0,
 2.130000000E+01, 3.27450E-01, 5.50000E-03,0,
 2.135000000E+01, 2.56700E-01, 6.00000E-03,0,
 2.140000000E+01, 7.54500E-02, 4.93000E+00,0,
 2.145000000E+01, 2.26550E-01, 5.50000E-03,0,
 2.150000000E+01, 3.07100E-01, 5.50000E-03,0,
 2.155000000E+01, 3.34200E-01, 4.93050E+00,0,
 2.160000000E+01, 3.45150E-01, 5.50000E-03,0,
 2.165000000E+01, 3.54300E-01, 5.50000E-03,0,
 2.170000000E+01, 3.46800E-01, 5.50000E-03,0,
 2.175000000E+01, 3.25350E-01, 4.93000E+00,0,
 2.180000000E+01, 2.36950E-01, 5.50000E-03,0,
 2.185000000E+01, 9.64000E-02, 5.50000E-03,0,
 2.190000000E+01, 2.05250E-01, 5.50000E-03,0,
 2.195000000E+01, 3.06050E-01, 4.93050E+00,0,
 2.200000000E+01, 3.42750E-01, 5.50000E-03,0,
 2.205000000E+01, 3.67700E-01, 5.50000E-03,0,
 2.210000000E+01, 3.69250E-01, 5.50000E-03,0,
 2.215000000E+01, 3.50450E-01, 4.93000E+00,0,
 2.220000000E+01, 3.09900E-01, 5.50000E-03,0,
 2.225000000E+01, 2.20400E-01, 5.50000E-03,0,
 2.230000000E+01, 1.82200E-01, 5.50000E-03,0,
 2.235000000E+01, 2.71250E-01, 4.93050E+00,0,
 2.240000000E+01, 3.10250E-01, 5.50000E-03,0,
 2.245000000E+01, 3.31100E-01, 5.50000E-03,0,
 2.250000000E+01, 3.58800E-01, 5.00000E-03,0,
 2.255000000E+01, 3.76400E-01, 4.93000E+00,0,
 2.260000000E+01, 3.84500E-01, 5.50000E-03,0,
 2.265000000E+01, 3.91950E-01, 5.50000E-03,0,
 2.270000000E+01, 3.86450E-01, 5.50000E-03,0,
 2.275000000E+01, 3.78500E-01, 4.93000E+00,0,
 2.280000000E+01, 3.72950E-01, 5.50000E-03,0,
 2.285000000E+01, 3.44600E-01, 5.50000E-03,0,
 2.290000000E+01, 3.65100E-01, 5.50000E-03,0,
 2.295000000E+01, 3.62600E-01, 4.93000E+00,0,
 2.300000000E+01, 3.58750E-01, 4.93050E+00,0,
 2.305000000E+01, 3.48700E-01, 5.50000E-03,0,
 2.310000000E+01, 3.52000E-01, 5.50000E-03,0,
 2.315000000E+01, 3.63500E-01, 4.93050E+00,0,
 2.320000000E+01, 3.64600E-01, 5.50000E-03,0,
 2.325000000E+01, 3.34150E-01, 5.50000E-03,0,
 2.330000000E+01, 2.61500E-01, 5.50000E-03,0,
 2.335000000E+01, 2.28500E-01, 4.93050E+00,0,
 2.340000000E+01, 3.03750E-01, 5.50000E-03,0,
 2.345000000E+01, 3.33550E-01, 5.50000E-03,0,
 2.350000000E+01, 3.46700E-01, 5.50000E-03,0,
 2.355000000E+01, 3.49500E-01, 4.93000E+00,0,
 2.360000000E+01, 3.31500E-01, 5.50000E-03,0,
 2.365000000E+01, 3.09600E-01, 5.50000E-03,0,
 2.370000000E+01, 3.03200E-01, 5.50000E-03,0,
 2.375000000E+01, 3.37700E-01, 4.93000E+00,0,
 2.380000000E+01, 3.67850E-01, 5.50000E-03,0,
 2.385000000E+01, 3.81400E-01, 5.50000E-03,0,
 2.390000000E+01, 3.78950E-01, 3.20000E-02,0,
 2.395000000E+01, 3.90800E-01, 5.50000E-03,0,
 2.400000000E+01, 4.17350E-01, 5.50000E-03,0,
 2.405000000E+01, 4.31250E-01, 5.50000E-03,0,
 2.410000000E+01, 4.29300E-01, 4.93000E+00,0,
 2.415000000E+01, 4.12250E-01, 5.50000E-03,0,
 2.420000000E+01, 4.05300E-01, 5.50000E-03,0,
 2.425000000E+01, 4.17250E-01, 4.93000E+00,0,
 2.430000000E+01, 4.42400E-01, 5.50000E-03,0,
 2.435000000E+01, 4.49150E-01, 5.50000E-03,0,
 2.440000000E+01, 4.43550E-01, 5.50000E-03,0,
 2.445000000E+01, 4.33000E-01, 4.93000E+00,0,
 2.450000000E+01, 4.13100E-01, 5.50000E-03,0,
 2.455000000E+01, 3.93300E-01, 5.50000E-03,0,
 2.460000000E+01, 3.87300E-01, 5.50000E-03,0,
 2.465000000E+01, 4.04450E-01, 5.50000E-03,0,
 2.470000000E+01, 4.09450E-01, 4.93050E+00,0,
 2.475000000E+01, 4.07450E-01, 5.50000E-03,0,
 2.480000000E+01, 4.09450E-01, 5.50000E-03,0,
 2.485000000E+01, 3.92550E-01, 5.50000E-03,0,
 2.490000000E+01, 3.73950E-01, 5.50000E-03,0,
 2.495000000E+01, 3.60600E-01, 4.92950E+00,0,
 2.500000000E+01, 3.55550E-01, 5.50000E-03,0,
 2.505000000E+01, 3.24300E-01, 5.50000E-03,0,
 2.510000000E+01, 2.83000E-01, 5.50000E-03,0,
 2.515000000E+01, 2.20050E-01, 4.93050E+00,0,
 2.520000000E+01, 2.21600E-01, 5.50000E-03,0,
 2.525000000E+01, 3.09400E-01, 5.50000E-03,0,
 2.530000000E+01, 3.43750E-01, 5.50000E-03,0,
 2.535000000E+01, 3.72600E-01, 4.93000E+00,0,
 2.540000000E+01, 3.93250E-01, 5.50000E-03,0,
 2.545000000E+01, 3.97200E-01, 5.50000E-03,0,
 2.550000000E+01, 3.73600E-01, 5.50000E-03,0,
 2.555000000E+01, 3.16600E-01, 4.93000E+00,0,
 2.560000000E+01, 2.74650E-01, 5.50000E-03,0,
 2.565000000E+01, 3.28100E-01, 5.50000E-03,0,
 2.570000000E+01, 3.51750E-01, 4.92700E+00,0,
 2.575000000E+01, 3.52800E-01, 4.93000E+00,0,
 2.580000000E+01, 3.36400E-01, 5.50000E-03,0,
 2.585000000E+01, 2.82950E-01, 5.50000E-03,0,
 2.590000000E+01, 1.63600E-01, 4.93050E+00,0,
 2.595000000E+01, 5.29000E-02, 5.50000E-03,0,
 2.600000000E+01, 1.68900E-01, 5.50000E-03,0,
 2.605000000E+01, 1.51550E-01, 5.50000E-03,0,
 2.610000000E+01, 1.78600E-01, 7.50000E-03,0,
 2.615000000E+01, 2.37150E-01, 4.93000E+00,0,
 2.620000000E+01, 3.07550E-01, 5.50000E-03,0,
 2.625000000E+01, 3.33250E-01, 5.50000E-03,0,
 2.630000000E+01, 3.55050E-01, 5.50000E-03,0,
 2.635000000E+01, 3.50350E-01, 4.93000E+00,0,
 2.640000000E+01, 3.11500E-01, 5.50000E-03,0,
 2.645000000E+01, 2.29150E-01, 5.50000E-03,0,
 2.650000000E+01, 2.09100E-01, 5.50000E-03,0,
 2.655000000E+01, 2.34200E-01, 4.93050E+00,0,
 2.660000000E+01, 2.49350E-01, 5.50000E-03,0,
 2.665000000E+01, 2.24750E-01, 5.50000E-03,0,
 2.670000000E+01, 2.50100E-01, 4.93000E+00,0,
 2.675000000E+01, 2.71500E-01, 4.93000E+00,0,
 2.680000000E+01, 3.35600E-01, 5.50000E-03,0,
 2.685000000E+01, 3.43500E-01, 5.50000E-03,0,
 2.690000000E+01, 3.25500E-01, 4.93000E+00,0,
 2.695000000E+01, 3.31300E-01, 5.50000E-03,0,
 2.700000000E+01, 3.21750E-01, 5.50000E-03,0,
 2.705000000E+01, 3.32000E-01, 4.93050E+00,0,
 2.710000000E+01, 3.31800E-01, 5.50000E-03,0,
 2.715000000E+01, 2.85750E-01, 5.50000E-03,0,
 2.720000000E+01, 2.69150E-01, 4.93000E+00,0,
 2.725000000E+01, 3.10800E-01, 5.50000E-03,0,
 2.730000000E+01, 3.59000E-01, 5.50000E-03,0,
 2.735000000E+01, 3.68650E-01, 4.93000E+00,0,
 2.740000000E+01, 3.61900E-01, 5.50000E-03,0,
 2.745000000E+01, 3.30750E-01, 5.50000E-03,0,
 2.750000000E+01, 3.07600E-01, 4.93000E+00,0,
 2.755000000E+01, 3.26350E-01, 5.50000E-03,0,
 2.760000000E+01, 3.38850E-01, 5.50000E-03,0,
 2.765000000E+01, 3.48850E-01, 4.93050E+00,0,
 2.770000000E+01, 3.36300E-01, 5.50000E-03,0,
 2.775000000E+01, 2.84550E-01, 5.50000E-03,0,
 2.780000000E+01, 2.02800E-01, 4.93000E+00,0,
 2.785000000E+01, 2.04350E-01, 5.50000E-03,0,
 2.790000000E+01, 2.19050E-01, 5.50000E-03,0,
 2.795000000E+01, 2.04050E-01, 4.93000E+00,0,
 2.800000000E+01, 1.95450E-01, 5.50000E-03,0,
 2.805000000E+01, 2.45450E-01, 5.50000E-03,0,
 2.810000000E+01, 3.10050E-01, 4.93000E+00,0,
 2.815000000E+01, 3.17050E-01, 5.50000E-03,0,
 2.820000000E+01, 2.69150E-01, 5.50000E-03,0,
 2.825000000E+01,-4.71500E-02, 4.93000E+00,0,
 2.830000000E+01, 2.77000E-01, 5.50000E-03,0,
 2.835000000E+01, 3.58500E-01, 5.50000E-03,0,
 2.840000000E+01, 3.81600E-01, 4.93000E+00,0,
 2.845000000E+01, 3.84550E-01, 5.50000E-03,0,
 2.850000000E+01, 3.46300E-01, 5.50000E-03,0,
 2.855000000E+01, 2.57600E-01, 4.93000E+00,0,
 2.860000000E+01, 2.53150E-01, 5.50000E-03,0,
 2.865000000E+01, 3.37400E-01, 5.50000E-03,0,
 2.870000000E+01, 3.60550E-01, 4.93000E+00,0,
 2.875000000E+01, 3.62600E-01, 5.50000E-03,0,
 2.880000000E+01, 3.48000E-01, 5.50000E-03,0,
 2.885000000E+01, 3.19250E-01, 4.93050E+00,0,
 2.890000000E+01, 3.08450E-01, 5.50000E-03,0,
 2.895000000E+01, 3.07300E-01, 5.50000E-03,0,
 2.900000000E+01, 3.18700E-01, 4.93000E+00,0,
 2.905000000E+01, 3.22050E-01, 5.50000E-03,0,
 2.910000000E+01, 2.89350E-01, 5.50000E-03,0,
 2.915000000E+01, 3.23100E-01, 4.93000E+00,0,
 2.920000000E+01, 3.15600E-01, 5.50000E-03,0,
 2.925000000E+01, 2.97200E-01, 5.50000E-03,0,
 2.930000000E+01, 2.86700E-01, 4.93000E+00,0,
 2.935000000E+01, 2.86350E-01, 5.50000E-03,0,
 2.940000000E+01, 3.12800E-01, 5.50000E-03,0,
 2.945000000E+01, 3.58350E-01, 4.93000E+00,0,
 2.950000000E+01, 3.94000E-01, 5.50000E-03,0,
 2.955000000E+01, 3.98100E-01, 5.50000E-03,0,
 2.960000000E+01, 4.05400E-01, 4.93000E+00,0,
 2.965000000E+01, 4.09400E-01, 5.50000E-03,0,
 2.970000000E+01, 4.02750E-01, 5.50000E-03,0,
 2.975000000E+01, 4.19150E-01, 4.93000E+00,0,
 2.980000000E+01, 4.22400E-01, 5.50000E-03,0,
 2.985000000E+01, 4.14000E-01, 5.50000E-03,0,
 2.990000000E+01, 4.06250E-01, 4.93000E+00,0,
 2.995000000E+01, 4.08950E-01, 5.50000E-03,0,
 3.000000000E+01, 4.28900E-01, 5.50000E-03,0,
 3.005000000E+01, 4.33400E-01, 4.93000E+00,0,
 3.010000000E+01, 4.13700E-01, 5.50000E-03,0,
 3.015000000E+01, 3.86050E-01, 6.00000E-03,0,
 3.020000000E+01, 3.94800E-01, 4.93000E+00,0,
 3.025000000E+01, 4.15350E-01, 5.50000E-03,0,
 3.030000000E+01, 4.04900E-01, 4.93000E+00,0,
 3.035000000E+01, 3.68200E-01, 5.50000E-03,0,
 3.040000000E+01, 2.13700E-01, 5.50000E-03,0,
 3.045000000E+01, 2.83050E-01, 4.93000E+00,0,
 3.050000000E+01, 3.36250E-01, 5.50000E-03,0,
 3.055000000E+01, 3.37600E-01, 5.50000E-03,0,
 3.060000000E+01, 2.65050E-01, 4.93050E+00,0,
 3.065000000E+01, 1.44850E-01, 5.50000E-03,0,
 3.070000000E+01, 2.86450E-01, 5.50000E-03,0,
 3.075000000E+01, 2.89850E-01, 4.93000E+00,0,
 3.080000000E+01, 1.89950E-01, 5.50000E-03,0,
 3.085000000E+01, 3.29050E-01, 5.50000E-03,0,
 3.090000000E+01, 3.95950E-01, 1.15000E-02,0,
 3.095000000E+01, 4.02100E-01, 5.50000E-03,0,
 3.100000000E+01, 3.77450E-01, 4.93000E+00,0,
 3.105000000E+01, 3.39350E-01, 5.50000E-03,0,
 3.110000000E+01, 4.02300E-01, 5.50000E-03,0,
 3.115000000E+01, 4.30400E-01, 4.93000E+00,0,
 3.120000000E+01, 4.27700E-01, 5.50000E-03,0,
 3.125000000E+01, 4.06800E-01, 5.50000E-03,0,
 3.130000000E+01, 3.74150E-01, 4.93000E+00,0,
 3.135000000E+01, 3.83450E-01, 5.50000E-03,0,
 3.140000000E+01, 4.08100E-01, 6.00000E-03,0,
 3.145000000E+01, 4.23150E-01, 4.93050E+00,0,
 3.150000000E+01, 4.02650E-01, 5.50000E-03,0,
 3.155000000E+01, 3.61450E-01, 5.50000E-03,0,
 3.160000000E+01, 3.17750E-01, 4.93000E+00,0,
 3.165000000E+01, 3.17950E-01, 5.50000E-03,0,
 3.170000000E+01, 3.47050E-01, 5.50000E-03,0,
 3.175000000E+01, 3.67850E-01, 4.93050E+00,0,
 3.180000000E+01, 3.65100E-01, 5.50000E-03,0,
 3.185000000E+01, 3.58800E-01, 5.50000E-03,0,
 3.190000000E+01, 3.54150E-01, 4.93050E+00,0,
 3.195000000E+01, 3.62600E-01, 4.92800E+00,0,
 3.200000000E+01, 3.70300E-01, 5.00000E-03,0,
 3.205000000E+01, 3.79600E-01, 4.87500E+00,0,
 3.210000000E+01, 3.81300E-01, 4.93050E+00,0,
 3.215000000E+01, 3.70100E-01, 5.50000E-03,0,
 3.220000000E+01, 3.70400E-01, 5.50000E-03,0,
 3.225000000E+01, 3.82150E-01, 4.93000E+00,0,
 3.230000000E+01, 4.00200E-01, 5.50000E-03,0,
 3.235000000E+01, 4.03050E-01, 5.50000E-03,0,
 3.240000000E+01, 3.91150E-01, 4.93000E+00,0,
 3.245000000E+01, 3.64350E-01, 5.50000E-03,0,
 3.250000000E+01, 3.21800E-01, 5.50000E-03,0,
 3.255000000E+01, 2.96000E-01, 4.93000E+00,0,
 3.260000000E+01, 2.92250E-01, 5.50000E-03,0,
 3.265000000E+01, 2.97300E-01, 5.50000E-03,0,
 3.270000000E+01, 3.01550E-01, 4.93000E+00,0,
 3.275000000E+01, 3.37300E-01, 5.50000E-03,0,
 3.280000000E+01, 3.81600E-01, 5.50000E-03,0,
 3.285000000E+01, 4.04800E-01, 4.93050E+00,0,
 3.290000000E+01, 4.14050E-01, 5.50000E-03,0,
 3.295000000E+01, 4.09450E-01, 5.50000E-03,0,
 3.300000000E+01, 3.77000E-01, 4.93050E+00,0,
 3.305000000E+01, 4.19450E-01, 5.50000E-03,0,
 3.310000000E+01, 4.33750E-01, 5.50000E-03,0,
 3.315000000E+01, 4.43800E-01, 4.93000E+00,0,
 3.320000000E+01, 4.63650E-01, 5.50000E-03,0,
 3.325000000E+01, 4.26400E-01, 5.50000E-03,0,
 3.330000000E+01, 4.26700E-01, 4.93050E+00,0,
 3.335000000E+01, 4.36050E-01, 5.50000E-03,0,
 3.340000000E+01, 4.27750E-01, 5.50000E-03,0,
 3.345000000E+01, 4.15850E-01, 4.93000E+00,0,
 3.350000000E+01, 3.91300E-01, 5.50000E-03,0,
 3.355000000E+01, 3.87100E-01, 5.50000E-03,0,
 3.360000000E+01, 3.86750E-01, 4.93000E+00,0,
 3.365000000E+01, 3.83700E-01, 5.50000E-03,0,
 3.370000000E+01, 3.39600E-01, 5.50000E-03,0,
 3.375000000E+01, 2.41850E-01, 4.93000E+00,0,
 3.380000000E+01, 2.36550E-01, 5.50000E-03,0,
 3.385000000E+01, 2.20500E-01, 4.93050E+00,0,
 3.390000000E+01, 1.62200E-01, 5.50000E-03,0,
 3.395000000E+01, 3.31800E-01, 5.50000E-03,0,
 3.400000000E+01, 3.77400E-01, 4.93000E+00,0,
 3.405000000E+01, 3.77250E-01, 5.50000E-03,0,
 3.410000000E+01, 3.53700E-01, 5.50000E-03,0,
 3.415000000E+01, 3.75600E-01, 4.93000E+00,0,
 3.420000000E+01, 4.04600E-01, 5.50000E-03,0,
 3.425000000E+01, 4.08900E-01, 5.50000E-03,0,
 3.430000000E+01, 3.95850E-01, 4.93050E+00,0,
 3.435000000E+01, 4.10750E-01, 5.50000E-03,0,
 3.440000000E+01, 4.45950E-01, 4.93050E+00,0,
 3.445000000E+01, 4.52950E-01, 5.50000E-03,0,
 3.450000000E+01, 4.33650E-01, 5.50000E-03,0,
 3.455000000E+01, 4.12600E-01, 4.93000E+00,0,
 3.460000000E+01, 4.19750E-01, 6.00000E-03,0,
 3.465000000E+01, 4.16050E-01, 5.50000E-03,0,
 3.470000000E+01, 3.83350E-01, 5.50000E-03,0,
 3.475000000E+01, 3.25100E-01, 5.50000E-03,0,
 3.480000000E+01, 3.00300E-01, 1.80800E+00,0,
 3.485000000E+01, 3.27900E-01, 5.50000E-03,0,
 3.490000000E+01, 2.74850E-01, 5.50000E-03,0,
 3.495000000E+01, 6.75000E-03, 4.93000E+00,0,
 3.500000000E+01, 3.00300E-01, 5.50000E-03,0,
 3.505000000E+01, 3.37650E-01, 4.93050E+00,0,
 3.510000000E+01, 3.43950E-01, 5.50000E-03,0,
 3.515000000E+01, 3.86250E-01, 5.50000E-03,0,
 3.520000000E+01, 4.26150E-01, 4.93050E+00,0,
 3.525000000E+01, 4.35400E-01, 6.00000E-03,0,
 3.530000000E+01, 4.14700E-01, 5.50000E-03,0,
 3.535000000E+01, 3.87850E-01, 5.50000E-03,0,
 3.540000000E+01, 4.23100E-01, 5.50000E-03,0,
 3.545000000E+01, 4.33600E-01, 4.93000E+00,0,
 3.550000000E+01, 4.25800E-01, 5.50000E-03,0,
 3.555000000E+01, 4.07100E-01, 5.50000E-03,0,
 3.560000000E+01, 4.05500E-01, 4.93000E+00,0,
 3.565000000E+01, 3.91150E-01, 5.50000E-03,0,
 3.570000000E+01, 3.48400E-01, 4.62850E+00,0,
 3.575000000E+01, 3.06600E-01, 5.50000E-03,0,
 3.580000000E+01, 3.54250E-01, 5.50000E-03,0,
 3.585000000E+01, 3.50150E-01, 4.93000E+00,0,
 3.590000000E+01, 3.08850E-01, 5.50000E-03,0,
 3.595000000E+01, 3.08100E-01, 5.50000E-03,0,
 3.600000000E+01, 3.83650E-01, 4.93050E+00,0,
 3.605000000E+01, 4.16650E-01, 5.50000E-03,0,
 3.610000000E+01, 4.23600E-01, 5.50000E-03,0,
 3.615000000E+01, 4.28850E-01, 4.93000E+00,0,
 3.620000000E+01, 4.31850E-01, 5.50000E-03,0,
 3.625000000E+01, 4.27350E-01, 5.50000E-03,0,
 3.630000000E+01, 4.18950E-01, 4.93050E+00,0,
 3.635000000E+01, 4.16400E-01, 5.50000E-03,0,
 3.640000000E+01, 3.96700E-01, 5.50000E-03,0,
 3.645000000E+01, 3.87850E-01, 4.93000E+00,0,
 3.650000000E+01, 3.71750E-01, 5.50000E-03,0,
 3.655000000E+01, 3.63100E-01, 4.93000E+00,0,
 3.660000000E+01, 3.65450E-01, 5.00000E-03,0,
 3.665000000E+01, 3.79100E-01, 6.00000E-03,0,
 3.670000000E+01, 3.79150E-01, 4.93000E+00,0,
 3.675000000E+01, 3.62850E-01, 5.50000E-03,0,
 3.680000000E+01, 3.55650E-01, 5.50000E-03,0,
 3.685000000E+01, 3.75250E-01, 4.93050E+00,0,
 3.690000000E+01, 3.83200E-01, 5.50000E-03,0,
 3.695000000E+01, 3.75700E-01, 5.50000E-03,0,
 3.700000000E+01, 3.68800E-01, 5.50000E-03,0,
 3.705000000E+01, 3.61150E-01, 5.50000E-03,0,
 3.710000000E+01, 3.41850E-01, 4.93050E+00,0,
 3.715000000E+01, 2.80900E-01, 5.50000E-03,0,
 3.720000000E+01, 2.30650E-01, 5.50000E-03,0,
 3.725000000E+01, 3.03900E-01, 4.93000E+00,0,
 3.730000000E+01, 3.16750E-01, 5.50000E-03,0,
 3.735000000E+01, 3.59350E-01, 5.50000E-03,0,
 3.740000000E+01, 3.77550E-01, 5.50000E-03,0,
 3.745000000E+01, 3.69350E-01, 5.50000E-03,0,
 3.750000000E+01, 3.63900E-01, 5.50000E-03,0,
 3.755000000E+01, 3.27300E-01, 4.91400E+00,0,
 3.760000000E+01, 3.21100E-01, 5.50000E-03,0,
 3.765000000E+01, 3.69350E-01, 4.93000E+00,0,
 3.770000000E+01, 4.01750E-01, 5.50000E-03,0,
 3.775000000E+01, 3.90150E-01, 5.50000E-03,0,
 3.780000000E+01, 3.85050E-01, 4.93000E+00,0,
 3.785000000E+01, 3.81450E-01, 5.50000E-03,0,
 3.790000000E+01, 3.91900E-01, 5.50000E-03,0,
 3.795000000E+01, 4.07450E-01, 4.93000E+00,0,
 3.800000000E+01, 4.17650E-01, 6.00000E-03,0,
 3.805000000E+01, 4.30050E-01, 5.50000E-03,0,
 3.810000000E+01, 4.29650E-01, 4.93050E+00,0,
 3.815000000E+01, 4.16850E-01, 5.50000E-03,0,
 3.820000000E+01, 4.01700E-01, 4.93000E+00,0,
 3.825000000E+01, 3.86100E-01, 5.50000E-03,0,
 3.830000000E+01, 3.60050E-01, 5.50000E-03,0,
 3.835000000E+01, 3.02850E-01, 4.93000E+00,0,
 3.840000000E+01, 1.70700E-01, 5.50000E-03,0,
 3.845000000E+01, 2.53500E-01, 5.50000E-03,0,
 3.850000000E+01, 3.24850E-01, 4.93000E+00,0,
 3.855000000E+01, 3.35900E-01, 5.50000E-03,0,
 3.860000000E+01, 3.51400E-01, 5.50000E-03,0,
 3.865000000E+01, 3.70100E-01, 4.93050E+00,0,
 3.870000000E+01, 3.76800E-01, 5.50000E-03,0,
 3.875000000E+01, 3.67450E-01, 4.93000E+00,0,
 3.880000000E+01, 3.52700E-01, 5.50000E-03,0,
 3.885000000E+01, 3.48900E-01, 5.50000E-03,0,
 3.890000000E+01, 3.47850E-01, 4.93000E+00,0,
 3.895000000E+01, 3.59250E-01, 5.50000E-03,0,
 3.900000000E+01, 3.74950E-01, 5.50000E-03,0,
 3.905000000E+01, 3.84800E-01, 5.50000E-03,0,
 3.910000000E+01, 3.86400E-01, 5.50000E-03,0,
 3.915000000E+01, 3.73200E-01, 4.93050E+00,0,
 3.920000000E+01, 3.79100E-01, 5.50000E-03,0,
 3.925000000E+01, 3.76050E-01, 5.50000E-03,0,
 3.930000000E+01, 3.85900E-01, 4.93000E+00,0,
 3.935000000E+01, 3.79300E-01, 5.50000E-03,0,
 3.940000000E+01, 3.75900E-01, 5.50000E-03,0,
 3.945000000E+01, 4.08500E-01, 5.50000E-03,0,
 3.950000000E+01, 3.99900E-01, 5.50000E-03,0,
 3.955000000E+01, 3.97250E-01, 4.93000E+00,0,
 3.960000000E+01, 3.78650E-01, 5.50000E-03,0,
 3.965000000E+01, 3.52900E-01, 5.50000E-03,0,
 3.970000000E+01, 3.20150E-01, 4.93000E+00,0,
 3.975000000E+01, 3.23600E-01, 5.50000E-03,0,
 3.980000000E+01, 3.11350E-01, 4.93000E+00,0,
 3.985000000E+01, 2.74900E-01, 5.50000E-03,0,
 3.990000000E+01, 2.91900E-01, 5.50000E-03,0,
 3.995000000E+01, 3.31500E-01, 4.93000E+00,0,
 4.000000000E+01, 3.33000E-01, 5.50000E-03,0,
 4.005000000E+01, 3.30250E-01, 4.93000E+00,0,
 4.010000000E+01, 3.15000E-01, 5.50000E-03,0,
 4.015000000E+01, 3.28350E-01, 5.50000E-03,0,
 4.020000000E+01, 3.60200E-01, 4.93000E+00,0,
 4.025000000E+01, 3.95300E-01, 5.50000E-03,0,
 4.030000000E+01, 4.06750E-01, 4.93000E+00,0,
 4.035000000E+01, 3.98900E-01, 5.50000E-03,0,
 4.040000000E+01, 3.91100E-01, 5.50000E-03,0,
 4.045000000E+01, 3.84700E-01, 4.93000E+00,0,
 4.050000000E+01, 3.75550E-01, 5.50000E-03,0,
 4.055000000E+01, 3.84850E-01, 2.80000E-02,0,
 4.060000000E+01, 3.96000E-01, 5.50000E-03,0,
 4.065000000E+01, 3.92050E-01, 5.50000E-03,0,
 4.070000000E+01, 3.62300E-01, 4.93000E+00,0,
 4.075000000E+01, 3.38450E-01, 5.50000E-03,0,
 4.080000000E+01, 3.27200E-01, 4.93000E+00,0,
 4.085000000E+01, 3.11450E-01, 5.50000E-03,0,
 4.090000000E+01, 2.97600E-01, 5.50000E-03,0,
 4.095000000E+01, 3.00100E-01, 4.93000E+00,0,
 4.100000000E+01, 2.59800E-01, 5.50000E-03,0,
 4.105000000E+01, 1.09800E-01, 4.93000E+00,0,
 4.110000000E+01, 2.47300E-01, 5.50000E-03,0,
 4.115000000E+01, 3.18450E-01, 5.50000E-03,0,
 4.120000000E+01, 3.10000E-01, 4.93000E+00,0,
 4.125000000E+01, 2.85400E-01, 5.50000E-03,0,
 4.130000000E+01, 3.30000E-01, 4.93050E+00,0,
 4.135000000E+01, 3.53250E-01, 5.50000E-03,0,
 4.140000000E+01, 3.39000E-01, 5.50000E-03,0,
 4.145000000E+01, 3.76550E-01, 4.93000E+00,0,
 4.150000000E+01, 3.97900E-01, 5.50000E-03,0,
 4.155000000E+01, 4.08250E-01, 5.50000E-03,0,
 4.160000000E+01, 3.81050E-01, 4.93050E+00,0,
 4.165000000E+01, 3.90400E-01, 5.50000E-03,0,
 4.170000000E+01, 3.94250E-01, 5.50000E-03,0,
 4.175000000E+01, 4.07700E-01, 4.93000E+00,0,
 4.180000000E+01, 4.11050E-01, 5.50000E-03,0,
 4.185000000E+01, 4.12000E-01, 4.93000E+00,0,
 4.190000000E+01, 3.98950E-01, 5.50000E-03,0,
 4.195000000E+01, 3.77000E-01, 5.50000E-03,0,
 4.200000000E+01, 3.82050E-01, 4.93000E+00,0,
 4.205000000E+01, 3.65350E-01, 5.50000E-03,0,
 4.210000000E+01, 3.32800E-01, 5.50000E-03,0,
 4.215000000E+01, 2.84900E-01, 4.93000E+00,0,
 4.220000000E+01, 2.58150E-01, 5.50000E-03,0,
 4.225000000E+01, 2.00550E-01, 5.50000E-03,0,
 4.230000000E+01, 2.89700E-01, 4.93000E+00,0,
 4.235000000E+01, 3.53100E-01, 5.50000E-03,0,
 4.240000000E+01, 3.92900E-01, 5.50000E-03,0,
 4.245000000E+01, 4.11450E-01, 4.93000E+00,0,
 4.250000000E+01, 4.06150E-01, 5.50000E-03,0,
 4.255000000E+01, 3.99600E-01, 5.50000E-03,0,
 4.260000000E+01, 4.03800E-01, 4.93000E+00,0,
 4.265000000E+01, 4.22400E-01, 5.50000E-03,0,
 4.270000000E+01, 4.25200E-01, 4.93000E+00,0,
 4.275000000E+01, 4.07400E-01, 5.50000E-03,0,
 4.280000000E+01, 3.57750E-01, 5.50000E-03,0,
 4.285000000E+01, 3.01150E-01, 4.93050E+00,0,
 4.290000000E+01, 3.19350E-01, 5.50000E-03,0,
 4.295000000E+01, 3.23050E-01, 4.93000E+00,0,
 4.300000000E+01, 2.73500E-01, 5.50000E-03,0,
 4.305000000E+01, 2.61000E-01, 5.50000E-03,0,
 4.310000000E+01, 3.08900E-01, 4.93000E+00,0,
 4.315000000E+01, 3.09150E-01, 5.50000E-03,0,
 4.320000000E+01, 3.21300E-01, 5.50000E-03,0,
 4.325000000E+01, 3.61000E-01, 5.50000E-03,0,
 4.330000000E+01, 3.88050E-01, 5.50000E-03,0,
 4.335000000E+01, 3.72950E-01, 4.93000E+00,0,
 4.340000000E+01, 3.45350E-01, 5.50000E-03,0,
 4.345000000E+01, 3.46450E-01, 4.93050E+00,0,
 4.350000000E+01, 3.48800E-01, 5.50000E-03,0,
 4.355000000E+01, 2.89600E-01, 5.50000E-03,0,
 4.360000000E+01, 1.75450E-01, 4.93000E+00,0,
 4.365000000E+01,-6.06000E-02, 5.50000E-03,0,
 4.370000000E+01, 2.29600E-01, 5.50000E-03,0,
 4.375000000E+01, 3.18750E-01, 6.00000E-03,0,
 4.380000000E+01, 3.63100E-01, 5.50000E-03,0,
 4.385000000E+01, 3.76500E-01, 4.93050E+00,0,
 4.390000000E+01, 3.73900E-01, 5.50000E-03,0,
 4.395000000E+01, 3.57050E-01, 5.50000E-03,0,
 4.400000000E+01, 3.41300E-01, 4.93050E+00,0,
 4.405000000E+01, 3.76700E-01, 5.50000E-03,0,
 4.410000000E+01, 3.80400E-01, 4.93050E+00,0,
 4.415000000E+01, 3.76450E-01, 5.50000E-03,0,
 4.420000000E+01, 3.68850E-01, 5.50000E-03,0,
 4.425000000E+01, 3.67500E-01, 4.93050E+00,0,
 4.430000000E+01, 3.47650E-01, 5.50000E-03,0,
 4.435000000E+01, 3.07350E-01, 5.50000E-03,0,
 4.440000000E+01, 2.82350E-01, 4.93000E+00,0,
 4.445000000E+01, 3.10600E-01, 5.50000E-03,0,
 4.450000000E+01, 3.21300E-01, 4.93000E+00,0,
 4.455000000E+01, 2.85300E-01, 5.50000E-03,0,
 4.460000000E+01, 3.03450E-01, 5.50000E-03,0,
 4.465000000E+01, 3.30000E-01, 4.93000E+00,0,
 4.470000000E+01, 2.99100E-01, 5.50000E-03,0,
 4.475000000E+01, 2.67550E-01, 5.50000E-03,0,
 4.480000000E+01, 3.02400E-01, 5.50000E-03,0,
 4.485000000E+01, 3.49450E-01, 5.50000E-03,0,
 4.490000000E+01, 3.49650E-01, 4.93000E+00,0,
 4.495000000E+01, 3.25300E-01, 5.50000E-03,0,
 4.500000000E+01, 3.23450E-01, 5.50000E-03,0,
 4.505000000E+01, 3.42650E-01, 5.50000E-03,0,
 4.510000000E+01, 3.22900E-01, 5.50000E-03,0,
 4.515000000E+01, 2.47000E-01, 4.93000E+00,0,
 4.520000000E+01, 2.74000E-01, 5.50000E-03,0,
 4.525000000E+01, 3.08300E-01, 5.50000E-03,0,
 4.530000000E+01, 2.80500E-01, 5.65000E-02,0,
 4.535000000E+01, 1.05900E-01, 5.50000E-03,0,
 4.540000000E+01, 3.05200E-01, 4.93000E+00,0,
 4.545000000E+01, 3.52100E-01, 5.50000E-03,0,
 4.550000000E+01, 3.22350E-01, 5.50000E-03,0,
 4.555000000E+01, 3.04150E-01, 4.93000E+00,0,
 4.560000000E+01, 3.37750E-01, 5.50000E-03,0,
 4.565000000E+01, 3.74400E-01, 5.50000E-03,0,
 4.570000000E+01, 4.14750E-01, 5.50000E-03,0,
 4.575000000E+01, 4.00100E-01, 5.50000E-03,0,
 4.580000000E+01, 3.97700E-01, 4.93050E+00,0,
 4.585000000E+01, 3.94550E-01, 5.50000E-03,0,
 4.590000000E+01, 3.93800E-01, 5.50000E-03,0,
 4.595000000E+01, 3.39350E-01, 5.50000E-03,0,
 4.600000000E+01, 3.05700E-01, 5.50000E-03,0,
 4.605000000E+01, 2.75300E-01, 4.93000E+00,0,
 4.610000000E+01, 2.24250E-01, 5.50000E-03,0,
 4.615000000E+01, 1.84550E-01, 4.93000E+00,0,
 4.620000000E+01, 2.22250E-01, 5.50000E-03,0,
 4.625000000E+01, 2.66450E-01, 5.50000E-03,0,
 4.630000000E+01, 2.87450E-01, 5.50000E-03,0,
 4.635000000E+01, 2.89250E-01, 5.50000E-03,0,
 4.640000000E+01, 2.82150E-01, 4.93000E+00,0,
 4.645000000E+01, 2.89500E-01, 5.50000E-03,0,
 4.650000000E+01, 3.17150E-01, 4.93000E+00,0,
 4.655000000E+01, 3.06500E-01, 5.50000E-03,0,
 4.660000000E+01, 2.96250E-01, 5.50000E-03,0,
 4.665000000E+01, 3.16200E-01, 4.93000E+00,0,
 4.670000000E+01, 3.29200E-01, 5.50000E-03,0,
 4.675000000E+01, 3.08750E-01, 1.76500E-01,0,
 4.680000000E+01, 1.74550E-01, 5.50000E-03,0,
 4.685000000E+01, 2.47000E-01, 5.50000E-03,0,
 4.690000000E+01, 3.27800E-01, 4.93000E+00,0,
 4.695000000E+01, 3.32650E-01, 5.50000E-03,0,
 4.700000000E+01, 2.78150E-01, 4.93050E+00,0,
 4.705000000E+01, 3.32950E-01, 6.00000E-03,0,
 4.710000000E+01, 3.42900E-01, 5.50000E-03,0,
 4.715000000E+01, 3.42600E-01, 4.93000E+00,0,
 4.720000000E+01, 3.47300E-01, 5.50000E-03,0,
 4.725000000E+01, 3.54900E-01, 4.93000E+00,0,
 4.730000000E+01, 3.50250E-01, 5.50000E-03,0,
 4.735000000E+01, 3.59450E-01, 5.50000E-03,0,
 4.740000000E+01, 3.44150E-01, 4.93000E+00,0,
 4.745000000E+01, 2.94550E-01, 5.50000E-03,0,
 4.750000000E+01, 2.59900E-01, 4.93000E+00,0,
 4.755000000E+01, 2.89700E-01, 5.50000E-03,0,
 4.760000000E+01, 3.29250E-01, 5.50000E-03,0,
 4.765000000E+01, 2.99450E-01, 4.93000E+00,0,
 4.770000000E+01, 2.62750E-01, 5.50000E-03,0,
 4.775000000E+01, 2.88350E-01, 4.93000E+00,0,
 4.780000000E+01, 3.62600E-01, 5.50000E-03,0,
 4.785000000E+01, 3.72550E-01, 5.50000E-03,0,
 4.790000000E+01, 3.54300E-01, 4.93000E+00,0,
 4.795000000E+01, 3.53950E-01, 5.50000E-03,0,
 4.800000000E+01, 3.74750E-01, 5.50000E-03,0,
 4.805000000E+01, 3.68450E-01, 4.93050E+00,0,
 4.810000000E+01, 3.76500E-01, 5.50000E-03,0,
 4.815000000E+01, 3.60200E-01, 5.50000E-03,0,
 4.820000000E+01, 3.31050E-01, 4.93000E+00,0,
 4.825000000E+01, 3.05450E-01, 5.50000E-03,0,
 4.830000000E+01, 3.00150E-01, 5.50000E-03,0,
 4.835000000E+01, 3.44700E-01, 4.93000E+00,0,
 4.840000000E+01, 3.53500E-01, 5.50000E-03,0,
 4.845000000E+01, 3.19850E-01, 5.50000E-03,0,
 4.850000000E+01, 2.29450E-01, 5.50000E-03,0,
 4.855000000E+01, 1.35650E-01, 4.93000E+00,0,
 4.860000000E+01, 1.00700E-01, 5.50000E-03,0,
 4.865000000E+01, 1.57900E-01, 5.50000E-03,0,
 4.870000000E+01, 2.22750E-01, 4.93000E+00,0,
 4.875000000E+01, 3.02650E-01, 5.50000E-03,0,
 4.880000000E+01, 3.31950E-01, 5.50000E-03,0,
 4.885000000E+01, 3.36250E-01, 5.50000E-03,0,
 4.890000000E+01, 3.36650E-01, 4.93000E+00,0,
 4.895000000E+01, 3.23700E-01, 5.50000E-03,0,
 4.900000000E+01, 3.42550E-01, 5.50000E-03,0,
 4.905000000E+01, 3.91600E-01, 4.93050E+00,0,
 4.910000000E+01, 4.07650E-01, 5.50000E-03,0,
 4.915000000E+01, 3.92350E-01, 5.50000E-03,0,
 4.920000000E+01, 3.49150E-01, 6.00000E-03,0,
 4.925000000E+01, 3.18400E-01, 4.93000E+00,0,
 4.930000000E+01, 3.42050E-01, 5.50000E-03,0,
 4.935000000E+01, 3.07850E-01, 4.93000E+00,0,
 4.940000000E+01, 2.37800E-01, 4.93000E+00,0,
 4.945000000E+01, 8.92500E-02, 5.50000E-03,0,
 4.950000000E+01, 1.36500E-01, 5.50000E-03,0,
 4.955000000E+01, 2.04000E-01, 4.93000E+00,0,
 4.960000000E+01, 2.42100E-01, 5.50000E-03,0,
 4.965000000E+01, 2.64350E-01, 5.50000E-03,0,
 4.970000000E+01, 2.81600E-01, 4.93000E+00,0,
 4.975000000E+01, 3.23100E-01, 5.50000E-03,0,
 4.980000000E+01, 2.49400E-01, 5.50000E-03,0,
 4.985000000E+01, 2.27000E-01, 4.93000E+00,0,
 4.990000000E+01, 3.29300E-01, 5.50000E-03,0,
 4.995000000E+01, 3.28100E-01, 5.50000E-03,0,
 5.000000000E+01, 2.48800E-01, 4.93000E+00,0,
 5.005000000E+01, 2.31700E-01, 5.50000E-03,0,
 5.010000000E+01, 3.02850E-01, 5.50000E-03,0,
 5.015000000E+01, 3.73150E-01, 4.93000E+00,0,
 5.020000000E+01, 4.04550E-01, 5.50000E-03,0,
 5.025000000E+01, 4.33900E-01, 5.50000E-03,0,
 5.030000000E+01, 4.27650E-01, 4.93000E+00,0,
 5.035000000E+01, 4.39500E-01, 5.50000E-03,0,
 5.040000000E+01, 4.38700E-01, 5.50000E-03,0,
 5.045000000E+01, 4.35350E-01, 4.93000E+00,0,
 5.050000000E+01, 4.57700E-01, 5.50000E-03,0,
 5.055000000E+01, 4.61800E-01, 5.50000E-03,0,
 5.060000000E+01, 4.60200E-01, 4.93000E+00,0,
 5.065000000E+01, 4.51900E-01, 5.50000E-03,0,
 5.070000000E+01, 4.42750E-01, 4.93000E+00,0,
 5.075000000E+01, 4.43850E-01, 5.50000E-03,0,
 5.080000000E+01, 4.60150E-01, 5.50000E-03,0,
 5.085000000E+01, 4.51450E-01, 4.93000E+00,0,
 5.090000000E+01, 4.27200E-01, 5.50000E-03,0,
 5.095000000E+01, 4.23350E-01, 5.50000E-03,0,
 5.100000000E+01, 4.47600E-01, 4.93000E+00,0,
 5.105000000E+01, 4.47600E-01, 5.50000E-03,0,
 5.110000000E+01, 4.45950E-01, 4.93000E+00,0,
 5.115000000E+01, 4.26050E-01, 5.50000E-03,0,
 5.120000000E+01, 4.00050E-01, 5.50000E-03,0,
 5.125000000E+01, 3.75000E-01, 4.93000E+00,0,
 5.130000000E+01, 3.31400E-01, 5.50000E-03,0,
 5.135000000E+01, 1.68800E-01, 5.50000E-03,0,
 5.140000000E+01, 2.54550E-01, 5.50000E-03,0,
 5.145000000E+01, 3.39100E-01, 5.50000E-03,0,
 5.150000000E+01, 3.72100E-01, 5.50000E-03,0,
 5.155000000E+01, 3.73650E-01, 5.50000E-03,0,
 5.160000000E+01, 3.21150E-01, 4.93000E+00,0,
 5.165000000E+01, 3.22150E-01, 5.50000E-03,0,
 5.170000000E+01, 3.26650E-01, 4.93050E+00,0,
 5.175000000E+01, 3.15000E-01, 5.50000E-03,0,
 5.180000000E+01, 2.27300E-01, 5.50000E-03,0,
 5.185000000E+01, 2.71600E-01, 5.50000E-03,0,
 5.190000000E+01, 3.57200E-01, 4.93000E+00,0,
 5.195000000E+01, 3.69900E-01, 5.50000E-03,0,
 5.200000000E+01, 3.72900E-01, 5.50000E-03,0,
 5.205000000E+01, 3.19400E-01, 5.57000E-01,0,
 5.210000000E+01, 2.67150E-01, 5.50000E-03,0,
 5.215000000E+01, 2.96400E-01, 5.50000E-03,0,
 5.220000000E+01, 2.75300E-01, 4.93000E+00,0,
 5.225000000E+01, 3.24800E-01, 5.50000E-03,0,
 5.230000000E+01, 3.08750E-01, 5.50000E-03,0,
 5.235000000E+01, 2.58600E-01, 4.93000E+00,0,
 5.240000000E+01, 2.50900E-01, 5.50000E-03,0,
 5.245000000E+01, 2.78100E-01, 5.50000E-03,0,
 5.250000000E+01, 2.61850E-01, 4.93000E+00,0,
 5.255000000E+01, 1.70550E-01, 5.50000E-03,0,
 5.260000000E+01, 1.56200E-01, 5.50000E-03,0,
 5.265000000E+01, 2.73000E-01, 4.93050E+00,0,
 5.270000000E+01, 2.48200E-01, 5.50000E-03,0,
 5.275000000E+01, 2.27050E-01, 5.50000E-03,0,
 5.280000000E+01, 2.20250E-01, 4.93000E+00,0,
 5.285000000E+01, 1.83350E-01, 5.50000E-03,0,
 5.290000000E+01, 2.25500E-01, 5.50000E-03,0,
 5.295000000E+01, 1.30550E-01, 4.93000E+00,0,
 5.300000000E+01, 1.78550E-01, 5.50000E-03,0,
 5.305000000E+01, 2.63600E-01, 5.50000E-03,0,
 5.310000000E+01, 3.52600E-01, 5.50000E-03,0,
 5.315000000E+01, 3.78400E-01, 4.93000E+00,0,
 5.320000000E+01, 3.65250E-01, 5.50000E-03,0,
 5.325000000E+01, 3.43300E-01, 5.50000E-03,0,
 5.330000000E+01, 3.79450E-01, 4.93000E+00,0,
 5.335000000E+01, 4.00150E-01, 5.50000E-03,0,
 5.340000000E+01, 3.94750E-01, 5.50000E-03,0,
 5.345000000E+01, 3.50600E-01, 4.93000E+00,0,
 5.350000000E+01, 2.84800E-01, 5.50000E-03,0,
 5.355000000E+01, 2.89200E-01, 5.50000E-03,0,
 5.360000000E+01, 3.13750E-01, 4.93000E+00,0,
 5.365000000E+01, 2.86600E-01, 5.50000E-03,0,
 5.370000000E+01, 2.50650E-01, 5.50000E-03,0,
 5.375000000E+01, 2.05450E-01, 4.93000E+00,0,
 5.380000000E+01, 2.28950E-01, 5.50000E-03,0,
 5.385000000E+01, 3.20700E-01, 5.50000E-03,0,
 5.390000000E+01, 2.64550E-01, 4.93000E+00,0,
 5.395000000E+01, 2.45550E-01, 5.50000E-03,0,
 5.400000000E+01, 2.43550E-01, 5.50000E-03,0,
 5.405000000E+01, 2.27250E-01, 4.93000E+00,0,
 5.410000000E+01, 2.36350E-01, 5.50000E-03,0,
 5.415000000E+01, 2.45900E-01, 5.50000E-03,0,
 5.420000000E+01, 2.73250E-01, 4.93050E+00,0,
 5.425000000E+01, 2.25450E-01, 5.50000E-03,0,
 5.430000000E+01, 1.87100E-01, 5.50000E-03,0,
 5.435000000E+01, 1.38050E-01, 4.93000E+00,0,
 5.440000000E+01, 2.45350E-01, 5.50000E-03,0,
 5.445000000E+01, 2.54450E-01, 5.50000E-03,0,
 5.450000000E+01, 2.70800E-01, 4.93000E+00,0,
 5.455000000E+01, 2.83450E-01, 5.50000E-03,0,
 5.460000000E+01, 3.03400E-01, 5.50000E-03,0,
 5.465000000E+01, 3.21600E-01, 4.93000E+00,0,
 5.470000000E+01, 3.65750E-01, 5.50000E-03,0,
 5.475000000E+01, 4.01650E-01, 5.50000E-03,0,
 5.480000000E+01, 4.18950E-01, 4.93000E+00,0,
 5.485000000E+01, 3.99250E-01, 5.00000E-03,0,
 5.490000000E+01, 3.93550E-01, 5.50000E-03,0,
 5.495000000E+01, 3.98700E-01, 5.50000E-03,0,
 5.500000000E+01, 4.24850E-01, 5.50000E-03,0,
 5.505000000E+01, 4.22050E-01, 4.93000E+00,0,
 5.510000000E+01, 4.37900E-01, 5.50000E-03,0,
 5.515000000E+01, 4.56350E-01, 5.50000E-03,0,
 5.520000000E+01, 4.67900E-01, 4.93000E+00,0,
 5.525000000E+01, 4.78450E-01, 5.50000E-03,0,
 5.530000000E+01, 4.78000E-01, 5.50000E-03,0,
 5.535000000E+01, 4.61750E-01, 4.93000E+00,0,
 5.540000000E+01, 4.36600E-01, 5.50000E-03,0,
 5.545000000E+01, 4.26200E-01, 5.50000E-03,0,
 5.550000000E+01, 4.34150E-01, 4.93000E+00,0,
 5.555000000E+01, 3.99850E-01, 5.50000E-03,0,
 5.560000000E+01, 3.82050E-01, 5.50000E-03,0,
 5.565000000E+01, 3.28550E-01, 5.50000E-03,0,
 5.570000000E+01, 3.31400E-01, 5.50000E-03,0,
 5.575000000E+01, 3.38700E-01, 4.93000E+00,0,
 5.580000000E+01, 3.12550E-01, 5.50000E-03,0,
 5.585000000E+01, 3.21100E-01, 5.50000E-03,0,
 5.590000000E+01, 2.82550E-01, 4.93050E+00,0,
 5.595000000E+01, 1.83300E-01, 5.50000E-03,0,
 5.600000000E+01, 2.72800E-01, 5.50000E-03,0,
 5.605000000E+01, 3.13700E-01, 4.93000E+00,0,
 5.610000000E+01, 2.88650E-01, 5.50000E-03,0,
 5.615000000E+01, 2.80250E-01, 5.50000E-03,0,
 5.620000000E+01, 1.68150E-01, 4.93000E+00,0,
 5.625000000E+01, 2.22650E-01, 5.50000E-03,0,
 5.630000000E+01, 2.12400E-01, 5.50000E-03,0,
 5.635000000E+01, 3.02750E-01, 4.93000E+00,0,
 5.640000000E+01, 3.60750E-01, 5.50000E-03,0,
 5.645000000E+01, 3.81900E-01, 5.50000E-03,0,
 5.650000000E+01, 3.50000E-01, 4.93000E+00,0,
 5.655000000E+01, 3.55500E-01, 5.50000E-03,0,
 5.660000000E+01, 4.21750E-01, 5.50000E-03,0,
 5.665000000E+01, 4.48300E-01, 4.93000E+00,0,
 5.670000000E+01, 4.58500E-01, 5.50000E-03,0,
 5.675000000E+01, 4.50050E-01, 5.50000E-03,0,
 5.680000000E+01, 4.41500E-01, 4.93050E+00,0,
 5.685000000E+01, 4.25550E-01, 5.50000E-03,0,
 5.690000000E+01, 4.25800E-01, 5.50000E-03,0,
 5.695000000E+01, 4.27300E-01, 4.93000E+00,0,
 5.700000000E+01, 4.22050E-01, 5.50000E-03,0,
 5.705000000E+01, 3.94300E-01, 5.50000E-03,0,
 5.710000000E+01, 3.67300E-01, 4.93000E+00,0,
 5.715000000E+01, 3.79300E-01, 5.50000E-03,0,
 5.720000000E+01, 4.15400E-01, 5.50000E-03,0,
 5.725000000E+01, 4.44900E-01, 4.93000E+00,0,
 5.730000000E+01, 4.45250E-01, 5.50000E-03,0,
 5.735000000E+01, 4.12250E-01, 5.50000E-03,0,
 5.740000000E+01, 3.53300E-01, 4.93000E+00,0,
 5.745000000E+01, 2.05800E-01, 5.50000E-03,0,
 5.750000000E+01, 3.44300E-01, 5.50000E-03,0,
 5.755000000E+01, 3.83000E-01, 5.50000E-03,0,
 5.760000000E+01, 3.84550E-01, 4.93000E+00,0,
 5.765000000E+01, 3.72800E-01, 5.50000E-03,0,
 5.770000000E+01, 3.83200E-01, 4.93000E+00,0,
 5.775000000E+01, 3.83900E-01, 4.93000E+00,0,
 5.780000000E+01, 3.82100E-01, 5.00000E-03,0,
 5.785000000E+01, 3.80400E-01, 5.50000E-03,0,
 5.790000000E+01, 4.02300E-01, 4.93000E+00,0,
 5.795000000E+01, 4.01300E-01, 5.50000E-03,0,
 5.800000000E+01, 3.84700E-01, 5.50000E-03,0,
 5.805000000E+01, 3.57050E-01, 4.93000E+00,0,
 5.810000000E+01, 3.38100E-01, 5.50000E-03,0,
 5.815000000E+01, 2.57100E-01, 6.00000E-03,0,
 5.820000000E+01, 2.96600E-01, 4.93000E+00,0,
 5.825000000E+01, 3.33100E-01, 5.50000E-03,0,
 5.830000000E+01, 2.82250E-01, 5.50000E-03,0,
 5.835000000E+01, 2.08600E-01, 4.93000E+00,0,
 5.840000000E+01, 1.68550E-01, 5.50000E-03,0,
 5.845000000E+01, 3.45250E-01, 5.50000E-03,0,
 5.850000000E+01, 4.04650E-01, 4.93000E+00,0,
 5.855000000E+01, 4.00850E-01, 5.50000E-03,0,
 5.860000000E+01, 3.98500E-01, 5.50000E-03,0,
 5.865000000E+01, 3.79600E-01, 4.93050E+00,0,
 5.870000000E+01, 3.61600E-01, 5.50000E-03,0,
 5.875000000E+01, 1.55350E-01, 5.50000E-03,0,
 5.880000000E+01, 1.83050E-01, 4.93000E+00,0,
 5.885000000E+01, 1.87450E-01, 5.50000E-03,0,
 5.890000000E+01, 3.26750E-01, 5.50000E-03,0,
 5.895000000E+01, 3.37000E-01, 4.93000E+00,0,
 5.900000000E+01, 3.55100E-01, 5.50000E-03,0,
 5.905000000E+01, 3.70950E-01, 5.50000E-03,0,
 5.910000000E+01, 4.03400E-01, 5.50000E-03,0,
 5.915000000E+01, 3.94500E-01, 4.93000E+00,0,
 5.920000000E+01, 3.84950E-01, 5.50000E-03,0,
 5.925000000E+01, 3.87450E-01, 5.50000E-03,0,
 5.930000000E+01, 3.83650E-01, 6.00500E-01,0,
 5.935000000E+01, 4.17100E-01, 5.50000E-03,0,
 5.940000000E+01, 4.17200E-01, 5.50000E-03,0,
 5.945000000E+01, 4.21050E-01, 4.93000E+00,0,
 5.950000000E+01, 4.08450E-01, 5.50000E-03,0,
 5.955000000E+01, 3.96750E-01, 5.50000E-03,0,
 5.960000000E+01, 3.37450E-01, 4.93000E+00,0,
 5.965000000E+01, 3.38950E-01, 5.50000E-03,0,
 5.970000000E+01, 3.91700E-01, 5.50000E-03,0,
 5.975000000E+01, 3.73250E-01, 4.93050E+00,0,
 5.980000000E+01, 3.13600E-01, 5.50000E-03,0,
 5.985000000E+01, 3.61550E-01, 5.50000E-03,0,
 5.990000000E+01, 3.74550E-01, 4.93050E+00,0,
 5.995000000E+01, 3.63850E-01, 5.50000E-03,0,
 6.000000000E+01, 3.17150E-01, 5.50000E-03,0,
 6.005000000E+01, 3.55550E-01, 4.93000E+00,0,
 6.010000000E+01, 3.42050E-01, 5.50000E-03,0,
 6.015000000E+01, 2.98800E-01, 4.93050E+00,0,
 6.020000000E+01, 3.77500E-01, 5.50000E-03,0,
 6.025000000E+01, 4.06750E-01, 5.50000E-03,0,
 6.030000000E+01, 3.69900E-01, 4.93000E+00,0,
 6.035000000E+01, 3.52300E-01, 5.50000E-03,0,
 6.040000000E+01, 3.46600E-01, 5.50000E-03,0,
 6.045000000E+01, 3.37350E-01, 4.93050E+00,0,
 6.050000000E+01, 3.34000E-01, 5.50000E-03,0,
 6.055000000E+01, 3.58100E-01, 5.50000E-03,0,
 6.060000000E+01, 3.02200E-01, 4.93000E+00,0,
 6.065000000E+01, 3.96850E-01, 5.50000E-03,0,
 6.070000000E+01, 4.28450E-01, 5.50000E-03,0,
 6.075000000E+01, 3.99350E-01, 4.93000E+00,0,
 6.080000000E+01, 3.89200E-01, 5.50000E-03,0,
 6.085000000E+01, 3.90000E-01, 5.50000E-03,0,
 6.090000000E+01, 3.46200E-01, 2.69000E-01,0,
 6.095000000E+01, 3.56050E-01, 5.50000E-03,0,
 6.100000000E+01, 3.63600E-01, 4.73550E+00,0,
 6.105000000E+01, 3.84800E-01, 5.50000E-03,0,
 6.110000000E+01, 3.85450E-01, 5.50000E-03,0,
 6.115000000E+01, 4.14000E-01, 4.93000E+00,0,
 6.120000000E+01, 3.94450E-01, 5.50000E-03,0,
 6.125000000E+01, 3.35700E-01, 5.50000E-03,0,
 6.130000000E+01, 2.66100E-01, 4.93000E+00,0,
 6.135000000E+01, 3.26300E-01, 5.50000E-03,0,
 6.140000000E+01, 3.48700E-01, 5.50000E-03,0,
 6.145000000E+01, 4.03550E-01, 4.93000E+00,0,
 6.150000000E+01, 4.12650E-01, 5.50000E-03,0,
 6.155000000E+01, 3.82200E-01, 5.50000E-03,0,
 6.160000000E+01, 3.20100E-01, 5.50000E-03,0,
 6.165000000E+01, 2.94950E-01, 5.50000E-03,0,
 6.170000000E+01, 2.01700E-01, 4.93000E+00,0,
 6.175000000E+01, 2.85400E-01, 5.50000E-03,0,
 6.180000000E+01, 3.23000E-01, 5.50000E-03,0,
 6.185000000E+01, 3.08050E-01, 4.93050E+00,0,
 6.190000000E+01, 2.81150E-01, 5.50000E-03,0,
 6.195000000E+01, 2.46700E-01, 5.50000E-03,0,
 6.200000000E+01, 3.12500E-01, 4.93050E+00,0,
 6.205000000E+01, 3.13100E-01, 5.50000E-03,0,
 6.210000000E+01, 2.35900E-01, 4.93000E+00,0,
 6.215000000E+01, 3.05200E-01, 5.50000E-03,0,
 6.220000000E+01, 3.64500E-01, 5.50000E-03,0,
 6.225000000E+01, 3.92700E-01, 4.93000E+00,0,
 6.230000000E+01, 4.06350E-01, 5.50000E-03,0,
 6.235000000E+01, 3.92400E-01, 4.93050E+00,0,
 6.240000000E+01, 3.65300E-01, 5.50000E-03,0,
 6.245000000E+01, 2.36200E-01, 5.50000E-03,0,
 6.250000000E+01, 2.77350E-01, 4.93000E+00,0,
 6.255000000E+01, 3.03050E-01, 5.50000E-03,0,
 6.260000000E+01, 2.27200E-01, 4.93050E+00,0,
 6.265000000E+01, 3.60000E-01, 5.50000E-03,0,
 6.270000000E+01, 4.03900E-01, 5.50000E-03,0,
 6.275000000E+01, 3.94300E-01, 4.93000E+00,0,
 6.280000000E+01, 3.60550E-01, 5.50000E-03,0,
 6.285000000E+01, 3.56350E-01, 4.93000E+00,0,
 6.290000000E+01, 3.59850E-01, 5.50000E-03,0,
 6.295000000E+01, 3.63850E-01, 5.50000E-03,0,
 6.300000000E+01, 3.82550E-01, 4.93000E+00,0,
 6.305000000E+01, 3.75450E-01, 5.50000E-03,0,
 6.310000000E+01, 3.39900E-01, 5.50000E-03,0,
 6.315000000E+01, 3.42450E-01, 5.50000E-03,0,
 6.320000000E+01, 3.71900E-01, 5.50000E-03,0,
 6.325000000E+01, 3.74400E-01, 4.93000E+00,0,
 6.330000000E+01, 3.68200E-01, 5.50000E-03,0,
 6.335000000E+01, 3.37550E-01, 5.50000E-03,0,
 6.340000000E+01, 3.18950E-01, 4.93000E+00,0,
 6.345000000E+01, 3.35000E-01, 5.50000E-03,0,
 6.350000000E+01, 3.50850E-01, 4.93050E+00,0,
 6.355000000E+01, 3.32600E-01, 5.50000E-03,0,
 6.360000000E+01, 3.29250E-01, 5.50000E-03,0,
 6.365000000E+01, 3.21100E-01, 4.93050E+00,0,
 6.370000000E+01, 3.43950E-01, 5.50000E-03,0,
 6.375000000E+01, 3.66900E-01, 5.50000E-03,0,
 6.380000000E+01, 3.90450E-01, 4.93000E+00,0,
 6.385000000E+01, 4.14250E-01, 5.50000E-03,0,
 6.390000000E+01, 4.23000E-01, 4.93050E+00,0,
 6.395000000E+01, 3.96750E-01, 5.50000E-03,0,
 6.400000000E+01, 3.52050E-01, 5.50000E-03,0,
 6.405000000E+01, 3.51400E-01, 4.93000E+00,0,
 6.410000000E+01, 3.80300E-01, 5.50000E-03,0,
 6.415000000E+01, 4.13050E-01, 5.50000E-03,0,
 6.420000000E+01, 4.24450E-01, 1.02500E+00,0,
 6.425000000E+01, 4.48550E-01, 5.50000E-03,0,
 6.430000000E+01, 4.56750E-01, 5.50000E-03,0,
 6.435000000E+01, 4.65500E-01, 5.50000E-03,0,
 6.440000000E+01, 4.70500E-01, 5.50000E-03,0,
 6.445000000E+01, 4.54350E-01, 4.93000E+00,0,
 6.450000000E+01, 4.64100E-01, 5.50000E-03,0,
 6.455000000E+01, 4.45200E-01, 5.50000E-03,0,
 6.460000000E+01, 4.35500E-01, 4.93000E+00,0,
 6.465000000E+01, 4.32150E-01, 5.50000E-03,0,
 6.470000000E+01, 4.09950E-01, 5.50000E-03,0,
 6.475000000E+01, 3.98150E-01, 4.93050E+00,0,
 6.480000000E+01, 3.63050E-01, 5.50000E-03,0,
 6.485000000E+01, 3.26950E-01, 5.50000E-03,0,
 6.490000000E+01, 3.18600E-01, 4.93000E+00,0,
 6.495000000E+01, 3.10150E-01, 5.50000E-03,0,
 6.500000000E+01, 2.34050E-01, 5.50000E-03,0,
 6.505000000E+01, 3.38300E-01, 4.93000E+00,0,
 6.510000000E+01, 3.85400E-01, 5.50000E-03,0,
 6.515000000E+01, 3.70100E-01, 5.50000E-03,0,
 6.520000000E+01, 3.41700E-01, 4.93000E+00,0,
 6.525000000E+01, 3.48950E-01, 5.50000E-03,0,
 6.530000000E+01, 3.77800E-01, 5.50000E-03,0,
 6.535000000E+01, 4.21050E-01, 4.93000E+00,0,
 6.540000000E+01, 4.51800E-01, 5.50000E-03,0,
 6.545000000E+01, 4.59100E-01, 5.50000E-03,0,
 6.550000000E+01, 4.59750E-01, 4.93000E+00,0,
 6.555000000E+01, 4.43850E-01, 5.50000E-03,0,
 6.560000000E+01, 4.24900E-01, 5.50000E-03,0,
 6.565000000E+01, 4.13200E-01, 5.00000E-03,0,
 6.570000000E+01, 4.21100E-01, 5.50000E-03,0,
 6.575000000E+01, 4.40500E-01, 4.93000E+00,0,
 6.580000000E+01, 4.56000E-01, 5.50000E-03,0,
 6.585000000E+01, 4.60350E-01, 5.50000E-03,0,
 6.590000000E+01, 4.49000E-01, 4.93000E+00,0,
 6.595000000E+01, 4.44550E-01, 5.50000E-03,0,
 6.600000000E+01, 4.29900E-01, 5.50000E-03,0,
 6.605000000E+01, 4.23700E-01, 4.93000E+00,0,
 6.610000000E+01, 3.96400E-01, 5.50000E-03,0,
 6.615000000E+01, 3.86550E-01, 4.93000E+00,0,
 6.620000000E+01, 4.00050E-01, 5.50000E-03,0,
 6.625000000E+01, 4.08650E-01, 5.50000E-03,0,
 6.630000000E+01, 4.11000E-01, 4.93000E+00,0,
 6.635000000E+01, 4.13700E-01, 5.50000E-03,0,
 6.640000000E+01, 3.95250E-01, 5.50000E-03,0,
 6.645000000E+01, 4.12350E-01, 4.93000E+00,0,
 6.650000000E+01, 4.01800E-01, 5.50000E-03,0,
 6.655000000E+01, 3.87550E-01, 5.50000E-03,0,
 6.660000000E+01, 4.08100E-01, 4.93000E+00,0,
 6.665000000E+01, 3.98400E-01, 5.50000E-03,0,
 6.670000000E+01, 4.06000E-01, 1.37600E+00,0,
 6.675000000E+01, 4.03250E-01, 5.50000E-03,0,
 6.680000000E+01, 4.09500E-01, 5.50000E-03,0,
 6.685000000E+01, 4.07450E-01, 4.51450E+00,0,
 6.690000000E+01, 4.26850E-01, 5.50000E-03,0,
 6.695000000E+01, 4.17200E-01, 5.50000E-03,0,
 6.700000000E+01, 3.97700E-01, 5.50000E-03,0,
 6.705000000E+01, 3.76000E-01, 5.50000E-03,0,
 6.710000000E+01, 3.57950E-01, 5.50000E-03,0,
 6.715000000E+01, 3.92050E-01, 2.90000E-01,0,
 6.720000000E+01, 4.16900E-01, 5.50000E-03,0,
 6.725000000E+01, 4.04650E-01, 5.00000E-03,0,
 6.730000000E+01, 3.89900E-01, 4.93000E+00,0,
 6.735000000E+01, 3.90600E-01, 5.50000E-03,0,
 6.740000000E+01, 4.06950E-01, 5.50000E-03,0,
 6.745000000E+01, 4.43300E-01, 4.93000E+00,0,
 6.750000000E+01, 4.76300E-01, 5.50000E-03,0,
 6.755000000E+01, 4.88150E-01, 5.50000E-03,0,
 6.760000000E+01, 4.90050E-01, 4.93000E+00,0,
 6.765000000E+01, 4.80400E-01, 5.50000E-03,0,
 6.770000000E+01, 4.71200E-01, 5.50000E-03,0,
 6.775000000E+01, 4.79000E-01, 4.93000E+00,0,
 6.780000000E+01, 4.81800E-01, 5.50000E-03,0,
 6.785000000E+01, 4.71300E-01, 5.50000E-03,0,
 6.790000000E+01, 4.39600E-01, 4.93000E+00,0,
 6.795000000E+01, 3.79450E-01, 5.50000E-03,0,
 6.800000000E+01, 3.30550E-01, 4.93000E+00,0,
 6.805000000E+01, 2.73150E-01, 5.50000E-03,0,
 6.810000000E+01, 2.61350E-01, 5.50000E-03,0,
 6.815000000E+01, 3.60350E-01, 4.93050E+00,0,
 6.820000000E+01, 3.95000E-01, 5.50000E-03,0,
 6.825000000E+01, 3.78350E-01, 5.50000E-03,0,
 6.830000000E+01, 3.86000E-01, 5.50000E-03,0,
 6.835000000E+01, 4.18950E-01, 5.50000E-03,0,
 6.840000000E+01, 4.34250E-01, 4.93000E+00,0,
 6.845000000E+01, 4.45250E-01, 5.50000E-03,0,
 6.850000000E+01, 4.46150E-01, 4.93000E+00,0,
 6.855000000E+01, 3.81200E-01, 5.50000E-03,0,
 6.860000000E+01, 4.04800E-01, 5.50000E-03,0,
 6.865000000E+01, 4.24500E-01, 5.50000E-03,0,
 6.870000000E+01, 4.15750E-01, 5.50000E-03,0,
 6.875000000E+01, 4.03550E-01, 4.93000E+00,0,
 6.880000000E+01, 3.96100E-01, 5.50000E-03,0,
 6.885000000E+01, 3.63400E-01, 4.93050E+00,0,
 6.890000000E+01, 2.99250E-01, 5.50000E-03,0,
 6.895000000E+01, 3.66350E-01, 5.50000E-03,0,
 6.900000000E+01, 3.12600E-01, 4.93050E+00,0,
 6.905000000E+01, 3.44500E-01, 5.50000E-03,0,
 6.910000000E+01, 2.38950E-01, 4.93050E+00,0,
 6.915000000E+01, 2.91350E-01, 5.50000E-03,0,
 6.920000000E+01, 3.63200E-01, 5.50000E-03,0,
 6.925000000E+01, 3.57200E-01, 5.50500E-01,0,
 6.930000000E+01, 4.28000E-01, 5.50000E-03,0,
 6.935000000E+01, 3.91400E-01, 4.93000E+00,0,
 6.940000000E+01, 4.07650E-01, 5.50000E-03,0,
 6.945000000E+01, 4.22000E-01, 4.93000E+00,0,
 6.950000000E+01, 4.48550E-01, 5.50000E-03,0,
 6.955000000E+01, 4.51450E-01, 5.50000E-03,0,
 6.960000000E+01, 4.94750E-01, 4.93000E+00,0,
 6.965000000E+01, 5.00350E-01, 5.50000E-03,0,
 6.970000000E+01, 4.94900E-01, 4.46650E+00,0,
 6.975000000E+01, 4.70300E-01, 5.50000E-03,0,
 6.980000000E+01, 4.69500E-01, 5.50000E-03,0,
 6.985000000E+01, 4.69750E-01, 4.93050E+00,0,
 6.990000000E+01, 4.79800E-01, 5.50000E-03,0,
 6.995000000E+01, 4.75150E-01, 4.93000E+00,0,
 7.000000000E+01, 4.76650E-01, 5.50000E-03,0,
 7.005000000E+01, 4.80650E-01, 5.50000E-03,0,
 7.010000000E+01, 4.82750E-01, 5.50000E-03,0,
 7.015000000E+01, 4.74050E-01, 5.50000E-03,0,
 7.020000000E+01, 4.45350E-01, 4.93000E+00,0,
 7.025000000E+01, 4.56900E-01, 5.50000E-03,0,
 7.030000000E+01, 4.57100E-01, 4.93000E+00,0,
 7.035000000E+01, 4.46400E-01, 5.50000E-03,0,
 7.040000000E+01, 3.84300E-01, 5.50000E-03,0,
 7.045000000E+01, 2.84500E-01, 4.93000E+00,0,
 7.050000000E+01, 3.10650E-01, 5.50000E-03,0,
 7.055000000E+01, 3.84750E-01, 5.50000E-03,0,
 7.060000000E+01, 4.40900E-01, 5.50000E-03,0,
 7.065000000E+01, 4.68550E-01, 5.50000E-03,0,
 7.070000000E+01, 4.40550E-01, 4.93000E+00,0,
 7.075000000E+01, 4.42400E-01, 5.50000E-03,0,
 7.080000000E+01, 3.59150E-01, 7.44500E-01,0,
 7.085000000E+01, 3.48900E-01, 5.50000E-03,0,
 7.090000000E+01, 3.53950E-01, 5.50000E-03,0,
 7.095000000E+01, 3.21800E-01, 4.93000E+00,0,
 7.100000000E+01, 3.30600E-01, 5.50000E-03,0,
 7.105000000E+01, 4.00000E-01, 5.50000E-03,0,
 7.110000000E+01, 4.19950E-01, 5.50000E-03,0,
 7.115000000E+01, 3.75350E-01, 5.50000E-03,0,
 7.120000000E+01, 3.16900E-01, 4.93000E+00,0,
 7.125000000E+01, 3.44850E-01, 5.50000E-03,0,
 7.130000000E+01, 3.47000E-01, 4.93000E+00,0,
 7.135000000E+01, 2.22750E-01, 5.50000E-03,0,
 7.140000000E+01, 3.25050E-01, 5.50000E-03,0,
 7.145000000E+01, 4.12500E-01, 4.93000E+00,0,
 7.150000000E+01, 4.54450E-01, 5.50000E-03,0,
 7.155000000E+01, 4.06500E-01, 5.50000E-03,0,
 7.160000000E+01, 3.78650E-01, 5.50000E-03,0,
 7.165000000E+01, 3.69550E-01, 5.50000E-03,0,
 7.170000000E+01, 3.84650E-01, 4.93000E+00,0,
 7.175000000E+01, 4.23100E-01, 5.50000E-03,0,
 7.180000000E+01, 3.96000E-01, 6.00000E-03,0,
 7.185000000E+01, 3.82800E-01, 4.93000E+00,0,
 7.190000000E+01, 3.89550E-01, 5.50000E-03,0,
 7.195000000E+01, 4.17000E-01, 5.50000E-03,0,
 7.200000000E+01, 4.42800E-01, 4.93050E+00,0,
 7.205000000E+01, 4.26100E-01, 5.50000E-03,0,
 7.210000000E+01, 4.03200E-01, 5.50000E-03,0,
 7.215000000E+01, 4.09900E-01, 4.93050E+00,0,
 7.220000000E+01, 4.22200E-01, 5.50000E-03,0,
 7.225000000E+01, 4.50650E-01, 5.50000E-03,0,
 7.230000000E+01, 4.54150E-01, 4.93000E+00,0,
 7.235000000E+01, 4.57550E-01, 5.50000E-03,0,
 7.240000000E+01, 4.53650E-01, 5.50000E-03,0,
 7.245000000E+01, 4.39900E-01, 4.93000E+00,0,
 7.250000000E+01, 4.15550E-01, 5.50000E-03,0,
 7.255000000E+01, 3.89250E-01, 5.50000E-03,0,
 7.260000000E+01, 3.68900E-01, 4.93050E+00,0,
 7.265000000E+01, 3.83750E-01, 5.50000E-03,0,
 7.270000000E+01, 4.39350E-01, 5.50000E-03,0,
 7.275000000E+01, 4.51350E-01, 4.93000E+00,0,
 7.280000000E+01, 4.57250E-01, 5.50000E-03,0,
 7.285000000E+01, 4.63250E-01, 5.50000E-03,0,
 7.290000000E+01, 4.17850E-01, 4.93000E+00,0,
 7.295000000E+01, 3.90300E-01, 5.50000E-03,0,
 7.300000000E+01, 4.06150E-01, 5.50000E-03,0,
 7.305000000E+01, 3.91350E-01, 4.93000E+00,0,
 7.310000000E+01, 4.02550E-01, 5.50000E-03,0,
 7.315000000E+01, 3.91400E-01, 5.50000E-03,0,
 7.320000000E+01, 3.70200E-01, 4.93000E+00,0,
 7.325000000E+01, 3.46450E-01, 5.50000E-03,0,
 7.330000000E+01, 3.53050E-01, 5.50000E-03,0,
 7.335000000E+01, 3.50250E-01, 4.93050E+00,0,
 7.340000000E+01, 3.64800E-01, 5.50000E-03,0,
 7.345000000E+01, 3.88450E-01, 5.50000E-03,0,
 7.350000000E+01, 3.64600E-01, 4.93000E+00,0,
 7.355000000E+01, 3.82300E-01, 5.50000E-03,0,
 7.360000000E+01, 3.55350E-01, 5.50000E-03,0,
 7.365000000E+01, 3.99400E-01, 4.93000E+00,0,
 7.370000000E+01, 3.90800E-01, 5.50000E-03,0,
 7.375000000E+01, 4.33200E-01, 5.50000E-03,0,
 7.380000000E+01, 4.12600E-01, 4.93000E+00,0,
 7.385000000E+01, 4.05200E-01, 5.50000E-03,0,
 7.390000000E+01, 2.98700E-01, 5.50000E-03,0,
 7.395000000E+01, 2.73700E-01, 4.93050E+00,0,
 7.400000000E+01, 3.95900E-01, 5.50000E-03,0,
 7.405000000E+01, 4.23150E-01, 5.50000E-03,0,
 7.410000000E+01, 3.72900E-01, 4.93000E+00,0,
 7.415000000E+01, 3.18550E-01, 5.00000E-03,0,
 7.420000000E+01, 2.52600E-01, 5.50000E-03,0,
 7.425000000E+01, 3.29850E-01, 4.93050E+00,0,
 7.430000000E+01, 2.94350E-01, 5.50000E-03,0,
 7.435000000E+01, 3.13300E-01, 5.50000E-03,0,
 7.440000000E+01, 3.73300E-01, 4.93000E+00,0,
 7.445000000E+01, 3.48300E-01, 5.50000E-03,0,
 7.450000000E+01, 4.28400E-01, 5.50000E-03,0,
 7.455000000E+01, 4.05650E-01, 4.93050E+00,0,
 7.460000000E+01, 4.10800E-01, 5.50000E-03,0,
 7.465000000E+01, 4.08050E-01, 5.50000E-03,0,
 7.470000000E+01, 3.29300E-01, 4.93000E+00,0,
 7.475000000E+01, 3.76650E-01, 5.00000E-03,0,
 7.480000000E+01, 3.63000E-01, 5.50000E-03,0,
 7.485000000E+01, 3.79150E-01, 4.93050E+00,0,
 7.490000000E+01, 4.43750E-01, 5.50000E-03,0,
 7.495000000E+01, 4.55850E-01, 5.50000E-03,0,
 7.500000000E+01, 4.74100E-01, 4.93000E+00,0,
 7.505000000E+01, 4.86900E-01, 5.50000E-03,0,
 7.510000000E+01, 4.81950E-01, 3.62500E-01,0,
 7.515000000E+01, 4.73500E-01, 5.50000E-03,0,
 7.520000000E+01, 4.26500E-01, 5.50000E-03,0,
 7.525000000E+01, 3.75550E-01, 4.93000E+00,0,
 7.530000000E+01, 2.47800E-01, 5.50000E-03,0,
 7.535000000E+01, 2.99300E-01, 5.50000E-03,0,
 7.540000000E+01, 3.71550E-01, 4.93000E+00,0,
 7.545000000E+01, 3.95050E-01, 5.50000E-03,0,
 7.550000000E+01, 4.41950E-01, 5.00000E-03,0,
 7.555000000E+01, 4.39400E-01, 4.93000E+00,0,
 7.560000000E+01, 4.34300E-01, 5.50000E-03,0,
 7.565000000E+01, 4.60150E-01, 4.93000E+00,0,
 7.570000000E+01, 4.05500E-01, 5.50000E-03,0,
 7.575000000E+01, 4.16300E-01, 5.50000E-03,0,
 7.580000000E+01, 3.84050E-01, 4.93050E+00,0,
 7.585000000E+01, 3.31600E-01, 5.50000E-03,0,
 7.590000000E+01, 3.42750E-01, 5.50000E-03,0,
 7.595000000E+01, 3.47750E-01, 5.50000E-03,0,
 7.600000000E+01, 4.04700E-01, 5.50000E-03,0,
 7.605000000E+01, 4.32600E-01, 4.93000E+00,0,
 7.610000000E+01, 4.06400E-01, 5.00000E-03,0,
 7.615000000E+01, 3.96900E-01, 5.50000E-03,0,
 7.620000000E+01, 4.38500E-01, 4.93050E+00,0,
 7.625000000E+01, 4.41700E-01, 5.50000E-03,0,
 7.630000000E+01, 4.48650E-01, 5.50000E-03,0,
 7.635000000E+01, 4.04200E-01, 5.50000E-03,0,
 7.640000000E+01, 3.83650E-01, 5.50000E-03,0,
 7.645000000E+01, 3.85850E-01, 4.93000E+00,0,
 7.650000000E+01, 3.23750E-01, 5.50000E-03,0,
 7.655000000E+01, 3.79400E-01, 5.50000E-03,0,
 7.660000000E+01, 4.35650E-01, 5.00000E-03,0,
 7.665000000E+01, 4.56350E-01, 5.50000E-03,0,
 7.670000000E+01, 4.51900E-01, 4.93000E+00,0,
 7.675000000E+01, 4.62450E-01, 5.50000E-03,0,
 7.680000000E+01, 4.79250E-01, 5.50000E-03,0,
 7.685000000E+01, 5.24650E-01, 4.93000E+00,0,
 7.690000000E+01, 5.06750E-01, 5.50000E-03,0,
 7.695000000E+01, 4.74400E-01, 4.91750E+00,0,
 7.700000000E+01, 4.44900E-01, 5.50000E-03,0,
 7.705000000E+01, 3.52800E-01, 5.50000E-03,0,
 7.710000000E+01, 3.66150E-01, 3.53350E+00,0,
 7.715000000E+01, 4.03500E-01, 5.50000E-03,0,
 7.720000000E+01, 4.17450E-01, 5.50000E-03,0,
 7.725000000E+01, 4.17850E-01, 5.50000E-03,0,
 7.730000000E+01, 4.50250E-01, 5.50000E-03,0,
 7.735000000E+01, 4.53850E-01, 5.50000E-03,0,
 7.740000000E+01, 4.39700E-01, 5.50000E-03,0,
 7.745000000E+01, 4.13800E-01, 4.93000E+00,0,
 7.750000000E+01, 4.33700E-01, 5.50000E-03,0,
 7.755000000E+01, 4.59800E-01, 4.93000E+00,0,
 7.760000000E+01, 4.81550E-01, 4.86150E+00,0,
 7.765000000E+01, 4.84450E-01, 5.50000E-03,0,
 7.770000000E+01, 4.83300E-01, 5.50000E-03,0,
 7.775000000E+01, 4.66200E-01, 4.93000E+00,0,
 7.780000000E+01, 4.56200E-01, 5.50000E-03,0,
 7.785000000E+01, 4.38000E-01, 5.50000E-03,0,
 7.790000000E+01, 4.22450E-01, 4.93050E+00,0,
 7.795000000E+01, 3.91100E-01, 5.50000E-03,0,
 7.800000000E+01, 4.07250E-01, 5.50000E-03,0,
 7.805000000E+01, 4.27750E-01, 4.93000E+00,0,
 7.810000000E+01, 4.50800E-01, 4.93000E+00,0,
 7.815000000E+01, 4.52000E-01, 5.50000E-03,0,
 7.820000000E+01, 4.21000E-01, 5.50000E-03,0,
 7.825000000E+01, 4.08250E-01, 4.93000E+00,0,
 7.830000000E+01, 4.24000E-01, 5.50000E-03,0,
 7.835000000E+01, 4.40500E-01, 5.50000E-03,0,
 7.840000000E+01, 4.59000E-01, 4.93000E+00,0,
 7.845000000E+01, 4.48950E-01, 5.50000E-03,0,
 7.850000000E+01, 4.29800E-01, 5.50000E-03,0,
 7.855000000E+01, 4.18700E-01, 5.50000E-03,0,
 7.860000000E+01, 3.80850E-01, 4.93050E+00,0,
 7.865000000E+01, 3.35950E-01, 5.50000E-03,0,
 7.870000000E+01, 3.45000E-01, 5.50000E-03,0,
 7.875000000E+01, 3.41800E-01, 4.93000E+00,0,
 7.880000000E+01, 3.48300E-01, 5.50000E-03,0,
 7.885000000E+01, 3.91100E-01, 5.50000E-03,0,
 7.890000000E+01, 3.98850E-01, 4.93000E+00,0,
 7.895000000E+01, 3.89600E-01, 5.50000E-03,0,
 7.900000000E+01, 3.56650E-01, 5.50000E-03,0,
 7.905000000E+01, 3.36700E-01, 4.93000E+00,0,
 7.910000000E+01, 2.79700E-01, 5.50000E-03,0,
 7.915000000E+01, 3.11750E-01, 5.50000E-03,0,
 7.920000000E+01, 3.50500E-01, 4.93000E+00,0,
 7.925000000E+01, 3.75650E-01, 5.50000E-03,0,
 7.930000000E+01, 3.84600E-01, 5.50000E-03,0,
 7.935000000E+01, 3.42350E-01, 4.93000E+00,0,
 7.940000000E+01, 3.29050E-01, 5.50000E-03,0,
 7.945000000E+01, 3.10300E-01, 5.50000E-03,0,
 7.950000000E+01, 3.05200E-01, 4.93000E+00,0,
 7.955000000E+01, 3.06000E-01, 5.50000E-03,0,
 7.960000000E+01, 2.48450E-01, 5.50000E-03,0,
 7.965000000E+01, 2.64300E-01, 4.93000E+00,0,
 7.970000000E+01, 2.95700E-01, 5.50000E-03,0,
 7.975000000E+01, 3.47550E-01, 5.50000E-03,0,
 7.980000000E+01, 4.14000E-01, 4.93000E+00,0,
 7.985000000E+01, 4.51550E-01, 5.50000E-03,0,
 7.990000000E+01, 4.64950E-01, 5.50000E-03,0,
 7.995000000E+01, 4.74900E-01, 4.93050E+00,0,
 8.000000000E+01, 4.71500E-01, 5.50000E-03,0,
 8.005000000E+01, 4.55250E-01, 4.93050E+00,0,
 8.010000000E+01, 4.44250E-01, 5.50000E-03,0,
 8.015000000E+01, 4.57750E-01, 5.50000E-03,0,
 8.020000000E+01, 4.63100E-01, 4.93000E+00,0,
 8.025000000E+01, 4.54650E-01, 5.50000E-03,0,
 8.030000000E+01, 4.57900E-01, 5.50000E-03,0,
 8.035000000E+01, 4.73300E-01, 4.93000E+00,0,
 8.040000000E+01, 4.81400E-01, 5.50000E-03,0,
 8.045000000E+01, 4.78850E-01, 5.00000E-03,0,
 8.050000000E+01, 4.63700E-01, 4.93000E+00,0,
 8.055000000E+01, 4.39500E-01, 5.50000E-03,0,
 8.060000000E+01, 3.82700E-01, 5.50000E-03,0,
 8.065000000E+01, 3.49150E-01, 4.93000E+00,0,
 8.070000000E+01, 3.58500E-01, 5.50000E-03,0,
 8.075000000E+01, 3.54550E-01, 4.93000E+00,0,
 8.080000000E+01, 3.48400E-01, 5.50000E-03,0,
 8.085000000E+01, 3.41650E-01, 5.50000E-03,0,
 8.090000000E+01, 3.83600E-01, 4.93000E+00,0,
 8.095000000E+01, 4.27750E-01, 5.50000E-03,0,
 8.100000000E+01, 4.59150E-01, 5.50000E-03,0,
 8.105000000E+01, 4.48650E-01, 4.93000E+00,0,
 8.110000000E+01, 4.74800E-01, 5.50000E-03,0,
 8.115000000E+01, 4.71350E-01, 5.50000E-03,0,
 8.120000000E+01, 4.76300E-01, 4.67750E+00,0,
 8.125000000E+01, 4.98250E-01, 5.50000E-03,0,
 8.130000000E+01, 4.85200E-01, 5.50000E-03,0,
 8.135000000E+01, 4.72750E-01, 5.50000E-03,0,
 8.140000000E+01, 4.40650E-01, 5.50000E-03,0,
 8.145000000E+01, 4.03950E-01, 5.50000E-03,0,
 8.150000000E+01, 4.11750E-01, 5.50000E-03,0,
 8.155000000E+01, 3.97850E-01, 5.50000E-03,0,
 8.160000000E+01, 4.43850E-01, 5.50000E-03,0,
 8.165000000E+01, 4.86100E-01, 1.28650E+00,0,
 8.170000000E+01, 5.18800E-01, 5.00000E-03,0,
 8.175000000E+01, 5.35150E-01, 4.93000E+00,0,
 8.180000000E+01, 5.32150E-01, 5.50000E-03,0,
 8.185000000E+01, 5.35450E-01, 5.50000E-03,0,
 8.190000000E+01, 5.39000E-01, 4.93000E+00,0,
 8.195000000E+01, 5.42800E-01, 5.50000E-03,0,
 8.200000000E+01, 5.46500E-01, 5.50000E-03,0,
 8.205000000E+01, 5.45450E-01, 4.93050E+00,0,
 8.210000000E+01, 5.43350E-01, 5.50000E-03,0,
 8.215000000E+01, 5.48350E-01, 5.50000E-03,0,
 8.220000000E+01, 5.46500E-01, 4.93000E+00,0,
 8.225000000E+01, 5.36050E-01, 5.50000E-03,0,
 8.230000000E+01, 5.16750E-01, 5.50000E-03,0,
 8.235000000E+01, 4.93600E-01, 4.93000E+00,0,
 8.240000000E+01, 4.69450E-01, 5.50000E-03,0,
 8.245000000E+01, 4.46750E-01, 5.50000E-03,0,
 8.250000000E+01, 4.02750E-01, 5.50000E-03,0,
 8.255000000E+01, 3.28700E-01, 5.50000E-03,0,
 8.260000000E+01, 2.09800E-01, 4.70400E+00,0,
 8.265000000E+01, 1.91900E-01, 5.50000E-03,0,
 8.270000000E+01, 1.65450E-01, 5.50000E-03,0,
 8.275000000E+01, 2.52100E-01, 4.93000E+00,0,
 8.280000000E+01, 3.96150E-01, 5.50000E-03,0,
 8.285000000E+01, 4.49150E-01, 5.50000E-03,0,
 8.290000000E+01, 4.77100E-01, 4.93000E+00,0,
 8.295000000E+01, 4.90900E-01, 5.50000E-03,0,
 8.300000000E+01, 4.99200E-01, 5.50000E-03,0,
 8.305000000E+01, 5.14650E-01, 4.93000E+00,0,
 8.310000000E+01, 5.05650E-01, 5.50000E-03,0,
 8.315000000E+01, 5.03550E-01, 5.50000E-03,0,
 8.320000000E+01, 4.94900E-01, 4.93000E+00,0,
 8.325000000E+01, 4.80400E-01, 5.50000E-03,0,
 8.330000000E+01, 4.49400E-01, 5.50000E-03,0,
 8.335000000E+01, 3.98800E-01, 2.17950E+00,0,
 8.340000000E+01, 3.25400E-01, 5.50000E-03,0,
 8.345000000E+01, 4.04700E-01, 4.93050E+00,0,
 8.350000000E+01, 4.38250E-01, 5.50000E-03,0,
 8.355000000E+01, 4.55250E-01, 5.50000E-03,0,
 8.360000000E+01, 4.73850E-01, 4.93000E+00,0,
 8.365000000E+01, 4.79250E-01, 5.50000E-03,0,
 8.370000000E+01, 4.79250E-01, 5.50000E-03,0,
 8.375000000E+01, 4.81100E-01, 4.92100E+00,0,
 8.380000000E+01, 4.65950E-01, 5.50000E-03,0,
 8.385000000E+01, 4.50200E-01, 5.50000E-03,0,
 8.390000000E+01, 4.60550E-01, 4.91700E+00,0,
 8.395000000E+01, 4.74700E-01, 5.50000E-03,0,
 8.400000000E+01, 4.88500E-01, 4.93000E+00,0,
 8.405000000E+01, 5.00700E-01, 5.50000E-03,0,
 8.410000000E+01, 5.18200E-01, 5.50000E-03,0,
 8.415000000E+01, 5.15850E-01, 4.93000E+00,0,
 8.420000000E+01, 5.02450E-01, 5.50000E-03,0,
 8.425000000E+01, 4.82400E-01, 5.50000E-03,0,
 8.430000000E+01, 4.72900E-01, 4.93000E+00,0,
 8.435000000E+01, 4.51600E-01, 5.50000E-03,0,
 8.440000000E+01, 4.21700E-01, 5.50000E-03,0,
 8.445000000E+01, 3.99350E-01, 5.50000E-03,0,
 8.450000000E+01, 3.57000E-01, 4.93000E+00,0,
 8.455000000E+01, 2.29500E-01, 5.50000E-03,0,
 8.460000000E+01, 1.85500E-01, 4.93000E+00,0,
 8.465000000E+01, 1.63050E-01, 5.50000E-03,0,
 8.470000000E+01, 2.49050E-01, 5.50000E-03,0,
 8.475000000E+01, 3.23350E-01, 5.50000E-03,0,
 8.480000000E+01, 3.48200E-01, 4.93000E+00,0,
 8.485000000E+01, 3.57850E-01, 5.50000E-03,0,
 8.490000000E+01, 2.66500E-01, 5.50000E-03,0,
 8.495000000E+01, 2.91500E-01, 5.50000E-03,0,
 8.500000000E+01, 3.74200E-01, 5.50000E-03,0,
 8.505000000E+01, 3.82700E-01, 5.50000E-03,0,
 8.510000000E+01, 3.82800E-01, 4.93000E+00,0,
 8.515000000E+01, 3.77250E-01, 5.50000E-03,0,
 8.520000000E+01, 4.00800E-01, 4.93050E+00,0,
 8.525000000E+01, 3.98000E-01, 5.50000E-03,0,
 8.530000000E+01, 4.20050E-01, 5.50000E-03,0,
 8.535000000E+01, 4.40650E-01, 4.93000E+00,0,
 8.540000000E+01, 4.74350E-01, 5.50000E-03,0,
 8.545000000E+01, 4.90750E-01, 5.50000E-03,0,
 8.550000000E+01, 4.91850E-01, 5.50000E-03,0,
 8.555000000E+01, 4.92650E-01, 5.50000E-03,0,
 8.560000000E+01, 4.75600E-01, 4.93000E+00,0,
 8.565000000E+01, 4.58150E-01, 5.50000E-03,0,
 8.570000000E+01, 4.40450E-01, 5.50000E-03,0,
 8.575000000E+01, 4.00300E-01, 4.93000E+00,0,
 8.580000000E+01, 3.23200E-01, 5.50000E-03,0,
 8.585000000E+01, 2.83550E-01, 5.50000E-03,0,
 8.590000000E+01, 3.51700E-01, 4.93000E+00,0,
 8.595000000E+01, 3.75500E-01, 5.50000E-03,0,
 8.600000000E+01, 4.17000E-01, 5.50000E-03,0,
 8.605000000E+01, 4.48950E-01, 5.50000E-03,0,
 8.610000000E+01, 4.65700E-01, 5.50000E-03,0,
 8.615000000E+01, 4.71600E-01, 4.93000E+00,0,
 8.620000000E+01, 4.75600E-01, 5.50000E-03,0,
 8.625000000E+01, 4.81400E-01, 5.50000E-03,0,
 8.630000000E+01, 4.75850E-01, 4.93000E+00,0,
 8.635000000E+01, 4.74400E-01, 5.50000E-03,0,
 8.640000000E+01, 4.54500E-01, 5.50000E-03,0,
 8.645000000E+01, 4.52300E-01, 4.93000E+00,0,
 8.650000000E+01, 4.42700E-01, 5.50000E-03,0,
 8.655000000E+01, 4.34700E-01, 5.50000E-03,0,
 8.660000000E+01, 4.25500E-01, 4.93000E+00,0,
 8.665000000E+01, 3.87950E-01, 5.50000E-03,0,
 8.670000000E+01, 3.58050E-01, 5.50000E-03,0,
 8.675000000E+01, 3.24800E-01, 4.93000E+00,0,
 8.680000000E+01, 3.83100E-01, 5.50000E-03,0,
 8.685000000E+01, 3.96600E-01, 5.50000E-03,0,
 8.690000000E+01, 4.02750E-01, 4.93050E+00,0,
 8.695000000E+01, 3.97800E-01, 5.50000E-03,0,
 8.700000000E+01, 3.97450E-01, 5.50000E-03,0,
 8.705000000E+01, 3.76600E-01, 4.93000E+00,0,
 8.710000000E+01, 3.62350E-01, 5.50000E-03,0,
 8.715000000E+01, 3.38450E-01, 5.50000E-03,0,
 8.720000000E+01, 2.98150E-01, 1.32500E+00,0,
 8.725000000E+01, 3.25650E-01, 5.50000E-03,0,
 8.730000000E+01, 3.53050E-01, 5.50000E-03,0,
 8.735000000E+01, 4.08600E-01, 4.93000E+00,0,
 8.740000000E+01, 4.17450E-01, 5.50000E-03,0,
 8.745000000E+01, 3.86050E-01, 5.50000E-03,0,
 8.750000000E+01, 3.26200E-01, 4.93000E+00,0,
 8.755000000E+01, 2.46550E-01, 5.50000E-03,0,
 8.760000000E+01, 3.22950E-01, 5.50000E-03,0,
 8.765000000E+01, 3.66700E-01, 4.93000E+00,0,
 8.770000000E+01, 4.13500E-01, 5.50000E-03,0,
 8.775000000E+01, 4.49600E-01, 5.50000E-03,0,
 8.780000000E+01, 4.61750E-01, 5.50000E-03,0,
 8.785000000E+01, 4.55250E-01, 4.93000E+00,0,
 8.790000000E+01, 4.41300E-01, 5.50000E-03,0,
 8.795000000E+01, 4.53050E-01, 5.50000E-03,0,
 8.800000000E+01, 4.74050E-01, 4.93000E+00,0,
 8.805000000E+01, 4.77750E-01, 5.50000E-03,0,
 8.810000000E+01, 4.71650E-01, 5.00000E-03,0,
 8.815000000E+01, 4.39450E-01, 4.93050E+00,0,
 8.820000000E+01, 4.31850E-01, 5.50000E-03,0,
 8.825000000E+01, 4.27350E-01, 5.50000E-03,0,
 8.830000000E+01, 4.13050E-01, 4.93000E+00,0,
 8.835000000E+01, 4.22000E-01, 5.50000E-03,0,
 8.840000000E+01, 4.53050E-01, 5.50000E-03,0,
 8.845000000E+01, 4.70550E-01, 5.50000E-03,0,
 8.850000000E+01, 4.83450E-01, 5.50000E-03,0,
 8.855000000E+01, 4.86000E-01, 5.50000E-03,0,
 8.860000000E+01, 4.84400E-01, 5.50000E-03,0,
 8.865000000E+01, 4.80800E-01, 4.93000E+00,0,
 8.870000000E+01, 4.93800E-01, 5.00000E-03,0,
 8.875000000E+01, 4.99700E-01, 5.50000E-03,0,
 8.880000000E+01, 5.00250E-01, 4.93000E+00,0,
 8.885000000E+01, 4.98550E-01, 5.50000E-03,0,
 8.890000000E+01, 4.98850E-01, 5.50000E-03,0,
 8.895000000E+01, 4.92150E-01, 4.93000E+00,0,
 8.900000000E+01, 4.83100E-01, 5.50000E-03,0,
 8.905000000E+01, 4.69600E-01, 5.50000E-03,0,
 8.910000000E+01, 4.52400E-01, 5.50000E-03,0,
 8.915000000E+01, 4.14800E-01, 5.50000E-03,0,
 8.920000000E+01, 4.09050E-01, 4.93000E+00,0,
 8.925000000E+01, 4.14650E-01, 5.50000E-03,0,
 8.930000000E+01, 4.53300E-01, 5.50000E-03,0,
 8.935000000E+01, 4.52100E-01, 5.50000E-03,0,
 8.940000000E+01, 4.36350E-01, 5.50000E-03,0,
 8.945000000E+01, 4.52500E-01, 4.93000E+00,0,
 8.950000000E+01, 4.67450E-01, 5.50000E-03,0,
 8.955000000E+01, 4.69100E-01, 5.50000E-03,0,
 8.960000000E+01, 4.51450E-01, 4.93050E+00,0,
 8.965000000E+01, 3.33750E-01, 5.50000E-03,0,
 8.970000000E+01, 2.66300E-01, 5.50000E-03,0,
 8.975000000E+01, 4.06050E-01, 4.93000E+00,0,
 8.980000000E+01, 4.45100E-01, 5.50000E-03,0,
 8.985000000E+01, 4.59600E-01, 4.93050E+00,0,
 8.990000000E+01, 4.79350E-01, 5.50000E-03,0,
 8.995000000E+01, 4.90700E-01, 5.50000E-03,0,
 9.000000000E+01, 4.98750E-01, 4.93000E+00,0,
 9.005000000E+01, 5.12700E-01, 5.50000E-03,0,
 9.010000000E+01, 5.04300E-01, 5.50000E-03,0,
 9.015000000E+01, 5.03450E-01, 4.83150E+00,0,
 9.020000000E+01, 5.04750E-01, 5.50000E-03,0,
 9.025000000E+01, 4.85650E-01, 5.50000E-03,0,
 9.030000000E+01, 4.47650E-01, 5.50000E-03,0,
 9.035000000E+01, 3.79150E-01, 5.50000E-03,0,
 9.040000000E+01, 3.33950E-01, 4.93000E+00,0,
 9.045000000E+01, 3.72500E-01, 5.50000E-03,0,
 9.050000000E+01, 3.83750E-01, 5.50000E-03,0,
 9.055000000E+01, 3.92350E-01, 4.93000E+00,0,
 9.060000000E+01, 3.90450E-01, 5.50000E-03,0,
 9.065000000E+01, 3.53250E-01, 5.50000E-03,0,
 9.070000000E+01, 3.12350E-01, 4.93000E+00,0,
 9.075000000E+01, 2.79650E-01, 5.50000E-03,0,
 9.080000000E+01, 3.45450E-01, 5.50000E-03,0,
 9.085000000E+01, 3.89300E-01, 5.00000E-02,0,
 9.090000000E+01, 4.34050E-01, 5.50000E-03,0,
 9.095000000E+01, 4.88200E-01, 4.93000E+00,0,
 9.100000000E+01, 4.91300E-01, 5.50000E-03,0,
 9.105000000E+01, 4.76350E-01, 5.50000E-03,0,
 9.110000000E+01, 4.41900E-01, 4.93050E+00,0,
 9.115000000E+01, 4.05300E-01, 5.50000E-03,0,
 9.120000000E+01, 3.23450E-01, 5.50000E-03,0,
 9.125000000E+01, 3.76450E-01, 5.50000E-03,0,
 9.130000000E+01, 4.47300E-01, 5.50000E-03,0,
 9.135000000E+01, 4.68500E-01, 4.93000E+00,0,
 9.140000000E+01, 4.56050E-01, 5.50000E-03,0,
 9.145000000E+01, 4.38300E-01, 5.50000E-03,0,
 9.150000000E+01, 4.39300E-01, 4.93000E+00,0,
 9.155000000E+01, 4.75350E-01, 5.50000E-03,0,
 9.160000000E+01, 4.72600E-01, 5.50000E-03,0,
 9.165000000E+01, 4.90500E-01, 4.93000E+00,0,
 9.170000000E+01, 4.81500E-01, 5.50000E-03,0,
 9.175000000E+01, 4.81200E-01, 5.50000E-03,0,
 9.180000000E+01, 5.01950E-01, 4.93000E+00,0,
 9.185000000E+01, 4.95550E-01, 5.00000E-03,0,
 9.190000000E+01, 5.05300E-01, 5.50000E-03,0,
 9.195000000E+01, 5.01750E-01, 5.50000E-03,0,
 9.200000000E+01, 5.12750E-01, 4.93000E+00,0,
 9.205000000E+01, 5.08500E-01, 4.93000E+00,0,
 9.210000000E+01, 5.26050E-01, 5.50000E-03,0,
 9.215000000E+01, 5.39250E-01, 5.50000E-03,0,
 9.220000000E+01, 5.51350E-01, 4.93000E+00,0,
 9.225000000E+01, 5.58050E-01, 4.93000E+00,0,
 9.230000000E+01, 5.50650E-01, 5.50000E-03,0,
 9.235000000E+01, 5.46150E-01, 5.50000E-03,0,
 9.240000000E+01, 5.23800E-01, 4.93000E+00,0,
 9.245000000E+01, 5.10700E-01, 5.50000E-03,0,
 9.250000000E+01, 5.01850E-01, 5.50000E-03,0,
 9.255000000E+01, 4.91850E-01, 5.50000E-03,0,
 9.260000000E+01, 4.81150E-01, 4.93000E+00,0,
 9.265000000E+01, 4.58000E-01, 5.50000E-03,0,
 9.270000000E+01, 4.11300E-01, 5.50000E-03,0,
 9.275000000E+01, 3.92550E-01, 4.93000E+00,0,
 9.280000000E+01, 3.80700E-01, 4.93000E+00,0,
 9.285000000E+01, 4.04000E-01, 5.50000E-03,0,
 9.290000000E+01, 4.44700E-01, 5.50000E-03,0,
 9.295000000E+01, 4.72250E-01, 4.93000E+00,0,
 9.300000000E+01, 4.82950E-01, 5.50000E-03,0,
 9.305000000E+01, 4.93200E-01, 5.50000E-03,0,
 9.310000000E+01, 4.93650E-01, 5.50000E-03,0,
 9.315000000E+01, 4.90950E-01, 4.93000E+00,0,
 9.320000000E+01, 5.19250E-01, 5.50000E-03,0,
 9.325000000E+01, 5.41150E-01, 5.50000E-03,0,
 9.330000000E+01, 5.62900E-01, 4.93000E+00,0,
 9.335000000E+01, 5.76750E-01, 5.50000E-03,0,
 9.340000000E+01, 5.78900E-01, 5.50000E-03,0,
 9.345000000E+01, 5.68600E-01, 5.50000E-03,0,
 9.350000000E+01, 5.62300E-01, 4.93000E+00,0,
 9.355000000E+01, 5.09300E-01, 5.50000E-03,0,
 9.360000000E+01, 5.16050E-01, 5.50000E-03,0,
 9.365000000E+01, 4.83550E-01, 4.93000E+00,0,
 9.370000000E+01, 4.61700E-01, 4.93000E+00,0,
 9.375000000E+01, 4.63300E-01, 5.50000E-03,0,
 9.380000000E+01, 4.01100E-01, 5.50000E-03,0,
 9.385000000E+01, 3.73850E-01, 4.93000E+00,0,
 9.390000000E+01, 4.07100E-01, 4.93000E+00,0,
 9.395000000E+01, 4.27050E-01, 5.50000E-03,0,
 9.400000000E+01, 4.50900E-01, 5.50000E-03,0,
 9.405000000E+01, 4.59750E-01, 5.50000E-03,0,
 9.410000000E+01, 4.78250E-01, 4.93050E+00,0,
 9.415000000E+01, 4.98800E-01, 5.50000E-03,0,
 9.420000000E+01, 5.29850E-01, 5.50000E-03,0,
 9.425000000E+01, 5.49600E-01, 5.50000E-03,0,
 9.430000000E+01, 5.60000E-01, 4.93000E+00,0,
 9.435000000E+01, 5.57100E-01, 5.50000E-03,0,
 9.440000000E+01, 5.35650E-01, 5.50000E-03,0,
 9.445000000E+01, 5.07550E-01, 4.93000E+00,0,
 9.450000000E+01, 4.82300E-01, 4.93000E+00,0,
 9.455000000E+01, 4.65250E-01, 5.50000E-03,0,
 9.460000000E+01, 4.55600E-01, 5.50000E-03,0,
 9.465000000E+01, 4.39500E-01, 5.50000E-03,0,
 9.470000000E+01, 4.32350E-01, 4.93000E+00,0,
 9.475000000E+01, 4.19500E-01, 5.50000E-03,0,
 9.480000000E+01, 4.70550E-01, 5.50000E-03,0,
 9.485000000E+01, 4.90650E-01, 5.50000E-03,0,
 9.490000000E+01, 5.27100E-01, 4.62000E+00,0,
 9.495000000E+01, 5.46150E-01, 5.50000E-03,0,
 9.500000000E+01, 5.66550E-01, 5.50000E-03,0,
 9.505000000E+01, 5.79600E-01, 4.93000E+00,0,
 9.510000000E+01, 5.67850E-01, 4.93000E+00,0,
 9.515000000E+01, 5.65350E-01, 5.50000E-03,0,
 9.520000000E+01, 5.51150E-01, 5.50000E-03,0,
 9.525000000E+01, 5.41150E-01, 4.93000E+00,0,
 9.530000000E+01, 5.34350E-01, 5.50000E-03,0,
 9.535000000E+01, 5.31550E-01, 5.50000E-03,0,
 9.540000000E+01, 5.33500E-01, 4.92750E+00,0,
 9.545000000E+01, 5.32000E-01, 4.93000E+00,0,
 9.550000000E+01, 5.36000E-01, 5.50000E-03,0,
 9.555000000E+01, 5.38600E-01, 5.50000E-03,0,
 9.560000000E+01, 5.31150E-01, 4.93000E+00,0,
 9.565000000E+01, 5.30800E-01, 5.50000E-03,0,
 9.570000000E+01, 5.25750E-01, 5.50000E-03,0,
 9.575000000E+01, 5.27750E-01, 5.50000E-03,0,
 9.580000000E+01, 4.98400E-01, 4.93000E+00,0,
 9.585000000E+01, 4.85000E-01, 5.00000E-03,0,
 9.590000000E+01, 4.61150E-01, 5.50000E-03,0,
 9.595000000E+01, 5.06250E-01, 4.93000E+00,0,
 9.600000000E+01, 5.42000E-01, 5.50000E-03,0,
 9.605000000E+01, 5.38550E-01, 5.50000E-03,0,
 9.610000000E+01, 4.94350E-01, 4.93000E+00,0,
 9.615000000E+01, 5.36600E-01, 5.50000E-03,0,
 9.620000000E+01, 5.70550E-01, 5.50000E-03,0,
 9.625000000E+01, 5.74000E-01, 4.08350E+00,0,
 9.630000000E+01, 5.98750E-01, 5.50000E-03,0,
 9.635000000E+01, 5.44150E-01, 5.50000E-03,0,
 9.640000000E+01, 5.37250E-01, 5.50000E-03,0,
 9.645000000E+01, 5.37850E-01, 4.93000E+00,0,
 9.650000000E+01, 5.28800E-01, 5.50000E-03,0,
 9.655000000E+01, 5.23150E-01, 5.50000E-03,0,
 9.660000000E+01, 5.33050E-01, 5.50000E-03,0,
 9.665000000E+01, 5.33650E-01, 4.93000E+00,0,
 9.670000000E+01, 5.28800E-01, 4.93050E+00,0,
 9.675000000E+01, 5.13750E-01, 5.50000E-03,0,
 9.680000000E+01, 4.93250E-01, 5.50000E-03,0,
 9.685000000E+01, 4.77500E-01, 5.50000E-03,0,
 9.690000000E+01, 4.75450E-01, 5.50000E-03,0,
 9.695000000E+01, 4.80250E-01, 5.50000E-03,0,
 9.700000000E+01, 4.95350E-01, 4.93000E+00,0,
 9.705000000E+01, 5.02550E-01, 4.93000E+00,0,
 9.710000000E+01, 5.07900E-01, 5.50000E-03,0,
 9.715000000E+01, 5.03050E-01, 5.50000E-03,0,
 9.720000000E+01, 5.26450E-01, 5.50000E-03,0,
 9.725000000E+01, 5.51000E-01, 5.50000E-03,0,
 9.730000000E+01, 5.56850E-01, 4.93000E+00,0,
 9.735000000E+01, 5.52200E-01, 5.50000E-03,0,
 9.740000000E+01, 5.47200E-01, 5.50000E-03,0,
 9.745000000E+01, 5.39100E-01, 5.50000E-03,0,
 9.750000000E+01, 5.31100E-01, 5.50000E-03,0,
 9.755000000E+01, 5.26000E-01, 4.93000E+00,0,
 9.760000000E+01, 5.03550E-01, 4.93050E+00,0,
 9.765000000E+01, 4.78050E-01, 5.50000E-03,0,
 9.770000000E+01, 4.59800E-01, 5.00000E-03,0,
 9.775000000E+01, 3.96200E-01, 4.93000E+00,0,
 9.780000000E+01, 3.89350E-01, 4.93000E+00,0,
 9.785000000E+01, 3.47300E-01, 5.50000E-03,0,
 9.790000000E+01, 3.34050E-01, 5.50000E-03,0,
 9.795000000E+01, 3.73450E-01, 4.93000E+00,0,
 9.800000000E+01, 3.83850E-01, 5.50000E-03,0,
 9.805000000E+01, 4.31300E-01, 5.50000E-03,0,
 9.810000000E+01, 4.64100E-01, 5.50000E-03,0,
 9.815000000E+01, 4.92350E-01, 4.93050E+00,0,
 9.820000000E+01, 5.27900E-01, 5.50000E-03,0,
 9.825000000E+01, 5.43950E-01, 5.50000E-03,0,
 9.830000000E+01, 5.40900E-01, 4.93000E+00,0,
 9.835000000E+01, 5.41600E-01, 4.93050E+00,0,
 9.840000000E+01, 5.51650E-01, 5.50000E-03,0,
 9.845000000E+01, 5.57850E-01, 5.50000E-03,0,
 9.850000000E+01, 5.65850E-01, 4.93050E+00,0,
 9.855000000E+01, 5.70850E-01, 5.50000E-03,0,
 9.860000000E+01, 5.78850E-01, 5.50000E-03,0,
 9.865000000E+01, 5.87200E-01, 5.50000E-03,0,
 9.870000000E+01, 6.00400E-01, 4.93050E+00,0,
 9.875000000E+01, 6.08700E-01, 5.50000E-03,0,
 9.880000000E+01, 6.09800E-01, 5.50000E-03,0,
 9.885000000E+01, 6.09050E-01, 4.93050E+00,0,
 9.890000000E+01, 6.04250E-01, 5.50000E-03,0,
 9.895000000E+01, 6.00350E-01, 5.00000E-03,0,
 9.900000000E+01, 5.97250E-01, 5.50000E-03,0,
 9.905000000E+01, 6.00450E-01, 4.93000E+00,0,
 9.910000000E+01, 6.02950E-01, 5.50000E-03,0,
 9.915000000E+01, 6.05800E-01, 5.50000E-03,0,
 9.920000000E+01, 6.01700E-01, 4.93000E+00,0,
 9.925000000E+01, 5.99300E-01, 4.93050E+00,0,
 9.930000000E+01, 5.94700E-01, 5.50000E-03,0,
 9.935000000E+01, 5.83500E-01, 5.50000E-03,0,
 9.940000000E+01, 5.69250E-01, 4.93050E+00,0,
 9.945000000E+01, 5.52150E-01, 5.50000E-03,0,
 9.950000000E+01, 5.32750E-01, 5.50000E-03,0,
 9.955000000E+01, 5.23850E-01, 5.50000E-03,0,
 9.960000000E+01, 5.41350E-01, 4.93000E+00,0,
 9.965000000E+01, 5.61350E-01, 5.50000E-03,0,
 9.970000000E+01, 5.84550E-01, 5.50000E-03,0,
 9.975000000E+01, 5.98800E-01, 5.50000E-03,0,
 9.980000000E+01, 5.81850E-01, 4.93050E+00,0,
 9.985000000E+01, 6.17850E-01, 5.50000E-03,0,
 9.990000000E+01, 6.21500E-01, 5.50000E-03,0,
 9.995000000E+01, 6.19250E-01, 4.93050E+00,0,
 1.000000000E+02, 6.32050E-01, 5.50000E-03,0,
 1.000500000E+02, 6.02600E-01, 5.50000E-03,0,
 1.001000000E+02, 6.00350E-01, 5.50000E-03,0,
 1.001500000E+02, 5.93000E-01, 4.93050E+00,0,
 1.002000000E+02, 5.81200E-01, 5.50000E-03,0,
 1.002500000E+02, 5.61300E-01, 5.50000E-03,0,
 1.003000000E+02, 5.40200E-01, 5.50000E-03,0,
 1.003500000E+02, 5.14100E-01, 4.93050E+00,0,
 1.004000000E+02, 4.80800E-01, 5.50000E-03,0,
 1.004500000E+02, 4.83400E-01, 5.50000E-03,0,
 1.005000000E+02, 4.83500E-01, 5.50000E-03,0,
 1.005500000E+02, 4.82600E-01, 4.93000E+00,0,
 1.006000000E+02, 4.97100E-01, 5.50000E-03,0,
 1.006500000E+02, 5.20500E-01, 5.50000E-03,0,
 1.007000000E+02, 5.27400E-01, 4.93000E+00,0,
 1.007500000E+02, 5.17000E-01, 5.50000E-03,0,
 1.008000000E+02, 5.05750E-01, 5.50000E-03,0,
 1.008500000E+02, 4.84250E-01, 5.50000E-03,0,
 1.009000000E+02, 4.76500E-01, 4.93050E+00,0,
 1.009500000E+02, 4.80850E-01, 5.50000E-03,0,
 1.010000000E+02, 4.81100E-01, 5.50000E-03,0,
 1.010500000E+02, 4.83450E-01, 4.93050E+00,0,
 1.011000000E+02, 4.53450E-01, 5.50000E-03,0,
 1.011500000E+02, 3.88000E-01, 5.50000E-03,0,
 1.012000000E+02, 4.38850E-01, 4.93050E+00,0,
 1.012500000E+02, 4.67500E-01, 5.50000E-03,0,
 1.013000000E+02, 4.87500E-01, 5.50000E-03,0,
 1.013500000E+02, 4.96600E-01, 4.93050E+00,0,
 1.014000000E+02, 5.06750E-01, 5.50000E-03,0,
 1.014500000E+02, 4.81400E-01, 5.50000E-03,0,
 1.015000000E+02, 4.88400E-01, 4.93050E+00,0,
 1.015500000E+02, 4.81250E-01, 5.50000E-03,0,
 1.016000000E+02, 4.79950E-01, 5.50000E-03,0,
 1.016500000E+02, 4.65200E-01, 5.50000E-03,0,
 1.017000000E+02, 4.86400E-01, 4.93050E+00,0,
 1.017500000E+02, 4.93200E-01, 5.50000E-03,0,
 1.018000000E+02, 5.19150E-01, 5.50000E-03,0,
 1.018500000E+02, 5.21350E-01, 5.50000E-03,0,
 1.019000000E+02, 5.44800E-01, 4.93050E+00,0,
 1.019500000E+02, 5.54700E-01, 5.50000E-03,0,
 1.020000000E+02, 5.51750E-01, 5.50000E-03,0,
 1.020500000E+02, 5.58600E-01, 4.93050E+00,0,
 1.021000000E+02, 5.42000E-01, 5.50000E-03,0,
 1.021500000E+02, 5.12250E-01, 5.50000E-03,0,
 1.022000000E+02, 5.07000E-01, 3.74600E+00,0,
 1.022500000E+02, 5.10100E-01, 4.93050E+00,0,
 1.023000000E+02, 5.18000E-01, 5.50000E-03,0,
 1.023500000E+02, 5.43300E-01, 5.50000E-03,0,
 1.024000000E+02, 5.90500E-01, 4.93050E+00,0,
 1.024500000E+02, 6.12750E-01, 5.50000E-03,0,
 1.025000000E+02, 6.28250E-01, 5.50000E-03,0,
 1.025500000E+02, 6.32250E-01, 4.93050E+00,0,
 1.026000000E+02, 6.23750E-01, 5.50000E-03,0,
 1.026500000E+02, 6.15900E-01, 5.50000E-03,0,
 1.027000000E+02, 6.03850E-01, 5.50000E-03,0,
 1.027500000E+02, 5.95600E-01, 4.93050E+00,0,
 1.028000000E+02, 5.90200E-01, 5.50000E-03,0,
 1.028500000E+02, 5.71350E-01, 5.50000E-03,0,
 1.029000000E+02, 5.64400E-01, 4.93050E+00,0,
 1.029500000E+02, 5.62250E-01, 5.50000E-03,0,
 1.030000000E+02, 5.71600E-01, 5.50000E-03,0,
 1.030500000E+02, 5.80000E-01, 4.93000E+00,0,
 1.031000000E+02, 5.80250E-01, 5.50000E-03,0,
 1.031500000E+02, 5.89100E-01, 5.50000E-03,0,
 1.032000000E+02, 5.78700E-01, 5.50000E-03,0,
 1.032500000E+02, 5.59450E-01, 4.93050E+00,0,
 1.033000000E+02, 5.41800E-01, 5.50000E-03,0,
 1.033500000E+02, 5.00700E-01, 5.00000E-03,0,
 1.034000000E+02, 4.52700E-01, 4.93050E+00,0,
 1.034500000E+02, 4.26600E-01, 5.50000E-03,0,
 1.035000000E+02, 4.37500E-01, 5.50000E-03,0,
 1.035500000E+02, 4.52650E-01, 4.73200E+00,0,
 1.036000000E+02, 4.82950E-01, 4.93050E+00,0,
 1.036500000E+02, 4.83950E-01, 5.50000E-03,0,
 1.037000000E+02, 4.83750E-01, 5.50000E-03,0,
 1.037500000E+02, 4.60650E-01, 4.93050E+00,0,
 1.038000000E+02, 3.88150E-01, 5.50000E-03,0,
 1.038500000E+02, 3.69750E-01, 5.50000E-03,0,
 1.039000000E+02, 4.70800E-01, 4.93050E+00,0,
 1.039500000E+02, 4.84750E-01, 5.50000E-03,0,
 1.040000000E+02, 4.98450E-01, 5.50000E-03,0,
 1.040500000E+02, 5.13150E-01, 4.91250E+00,0,
 1.041000000E+02, 5.08950E-01, 4.93050E+00,0,
 1.041500000E+02, 5.49300E-01, 5.50000E-03,0,
 1.042000000E+02, 5.66100E-01, 5.50000E-03,0,
 1.042500000E+02, 5.70350E-01, 4.93050E+00,0,
 1.043000000E+02, 5.41750E-01, 5.50000E-03,0,
 1.043500000E+02, 5.40150E-01, 5.50000E-03,0,
 1.044000000E+02, 5.18700E-01, 5.50000E-03,0,
 1.044500000E+02, 4.89000E-01, 5.50000E-03,0,
 1.045000000E+02, 4.58900E-01, 5.50000E-03,0,
 1.045500000E+02, 4.09900E-01, 5.50000E-03,0,
 1.046000000E+02, 3.25100E-01, 4.93050E+00,0,
 1.046500000E+02, 3.63650E-01, 5.50000E-03,0,
 1.047000000E+02, 3.59900E-01, 5.50000E-03,0,
 1.047500000E+02, 4.50150E-01, 4.93050E+00,0,
 1.048000000E+02, 4.91750E-01, 5.50000E-03,0,
 1.048500000E+02, 4.99800E-01, 5.50000E-03,0,
 1.049000000E+02, 5.37700E-01, 4.93050E+00,0,
 1.049500000E+02, 5.83400E-01, 5.50000E-03,0,
 1.050000000E+02, 6.17300E-01, 5.50000E-03,0,
 1.050500000E+02, 6.42200E-01, 4.25000E+00,0,
 1.051000000E+02, 6.58900E-01, 5.50000E-03,0,
 1.051500000E+02, 6.58750E-01, 5.50000E-03,0,
 1.052000000E+02, 6.51500E-01, 4.93050E+00,0,
 1.052500000E+02, 6.59850E-01, 5.50000E-03,0,
 1.053000000E+02, 6.55350E-01, 5.50000E-03,0,
 1.053500000E+02, 6.53800E-01, 4.93050E+00,0,
 1.054000000E+02, 6.43150E-01, 5.50000E-03,0,
 1.054500000E+02, 6.28600E-01, 5.50000E-03,0,
 1.055000000E+02, 6.16700E-01, 4.93050E+00,0,
 1.055500000E+02, 6.07450E-01, 5.50000E-03,0,
 1.056000000E+02, 6.17350E-01, 5.50000E-03,0,
 1.056500000E+02, 6.16000E-01, 4.93050E+00,0,
 1.057000000E+02, 5.99000E-01, 5.50000E-03,0,
 1.057500000E+02, 5.84950E-01, 5.50000E-03,0,
 1.058000000E+02, 5.58700E-01, 5.50000E-03,0,
 1.058500000E+02, 4.99800E-01, 4.93000E+00,0,
 1.059000000E+02, 3.93550E-01, 5.50000E-03,0,
 1.059500000E+02, 2.96850E-01, 5.50000E-03,0,
 1.060000000E+02, 4.58900E-01, 4.93050E+00,0,
 1.060500000E+02, 4.74150E-01, 5.50000E-03,0,
 1.061000000E+02, 5.29100E-01, 5.50000E-03,0,
 1.061500000E+02, 5.47800E-01, 5.50000E-03,0,
 1.062000000E+02, 5.52300E-01, 4.93050E+00,0,
 1.062500000E+02, 5.72300E-01, 5.50000E-03,0,
 1.063000000E+02, 5.65400E-01, 5.50000E-03,0,
 1.063500000E+02, 5.55300E-01, 4.93050E+00,0,
 1.064000000E+02, 5.37150E-01, 5.50000E-03,0,
 1.064500000E+02, 5.46700E-01, 5.50000E-03,0,
 1.065000000E+02, 5.37100E-01, 5.50000E-03,0,
 1.065500000E+02, 5.61700E-01, 4.93050E+00,0,
 1.066000000E+02, 5.83450E-01, 5.50000E-03,0,
 1.066500000E+02, 5.99100E-01, 5.50000E-03,0,
 1.067000000E+02, 6.26450E-01, 4.93050E+00,0,
 1.067500000E+02, 6.43400E-01, 5.50000E-03,0,
 1.068000000E+02, 6.46900E-01, 5.50000E-03,0,
 1.068500000E+02, 6.44150E-01, 4.93000E+00,0,
 1.069000000E+02, 6.35550E-01, 5.50000E-03,0,
 1.069500000E+02, 6.19750E-01, 5.50000E-03,0,
 1.070000000E+02, 6.07150E-01, 4.93050E+00,0,
 1.070500000E+02, 5.88250E-01, 5.50000E-03,0,
 1.071000000E+02, 5.84200E-01, 5.50000E-03,0,
 1.071500000E+02, 5.88150E-01, 5.50000E-03,0,
 1.072000000E+02, 5.87800E-01, 4.93000E+00,0,
 1.072500000E+02, 5.90150E-01, 5.50000E-03,0,
 1.073000000E+02, 6.01850E-01, 5.50000E-03,0,
 1.073500000E+02, 6.10050E-01, 4.93050E+00,0,
 1.074000000E+02, 6.15800E-01, 5.50000E-03,0,
 1.074500000E+02, 6.12350E-01, 5.50000E-03,0,
 1.075000000E+02, 6.14700E-01, 5.50000E-03,0,
 1.075500000E+02, 6.14050E-01, 4.93000E+00,0,
 1.076000000E+02, 6.12850E-01, 5.50000E-03,0,
 1.076500000E+02, 6.19750E-01, 5.50000E-03,0,
 1.077000000E+02, 6.26900E-01, 4.93050E+00,0,
 1.077500000E+02, 6.34650E-01, 5.50000E-03,0,
 1.078000000E+02, 6.45100E-01, 5.50000E-03,0,
 1.078500000E+02, 6.54800E-01, 5.50000E-03,0,
 1.079000000E+02, 6.64500E-01, 4.93050E+00,0,
 1.079500000E+02, 6.73100E-01, 5.50000E-03,0,
 1.080000000E+02, 6.85750E-01, 5.50000E-03,0,
 1.080500000E+02, 6.87850E-01, 4.93050E+00,0,
 1.081000000E+02, 6.92650E-01, 4.93050E+00,0,
 1.081500000E+02, 6.90050E-01, 5.50000E-03,0,
 1.082000000E+02, 6.55750E-01, 5.50000E-03,0,
 1.082500000E+02, 6.65700E-01, 4.93000E+00,0,
 1.083000000E+02, 6.62300E-01, 4.93050E+00,0,
 1.083500000E+02, 6.55850E-01, 5.50000E-03,0,
 1.084000000E+02, 6.60250E-01, 5.50000E-03,0,
 1.084500000E+02, 6.45250E-01, 4.93050E+00,0,
 1.085000000E+02, 6.38700E-01, 5.50000E-03,0,
 1.085500000E+02, 6.39650E-01, 5.50000E-03,0,
 1.086000000E+02, 6.28400E-01, 5.50000E-03,0,
 1.086500000E+02, 6.40450E-01, 4.93050E+00,0,
 1.087000000E+02, 6.33950E-01, 5.50000E-03,0,
 1.087500000E+02, 6.24000E-01, 5.50000E-03,0,
 1.088000000E+02, 6.14450E-01, 4.93050E+00,0,
 1.088500000E+02, 6.05700E-01, 4.93050E+00,0,
 1.089000000E+02, 5.71850E-01, 5.50000E-03,0,
 1.089500000E+02, 5.10100E-01, 5.50000E-03,0,
 1.090000000E+02, 4.17650E-01, 4.93000E+00,0,
 1.090500000E+02, 4.17800E-01, 5.00000E-03,0,
 1.091000000E+02, 5.21250E-01, 5.50000E-03,0,
 1.091500000E+02, 5.71750E-01, 5.50000E-03,0,
 1.092000000E+02, 5.94350E-01, 4.93050E+00,0,
 1.092500000E+02, 5.94850E-01, 5.50000E-03,0,
 1.093000000E+02, 5.93950E-01, 5.50000E-03,0,
 1.093500000E+02, 5.79850E-01, 4.93000E+00,0,
 1.094000000E+02, 5.52650E-01, 4.93000E+00,0,
 1.094500000E+02, 4.77250E-01, 5.50000E-03,0,
 1.095000000E+02, 4.01350E-01, 5.50000E-03,0,
 1.095500000E+02, 3.36550E-01, 4.93050E+00,0,
 1.096000000E+02, 4.16550E-01, 5.50000E-03,0,
 1.096500000E+02, 4.48600E-01, 5.00000E-03,0,
 1.097000000E+02, 4.81350E-01, 4.93050E+00,0,
 1.097500000E+02, 4.85700E-01, 5.50000E-03,0,
 1.098000000E+02, 4.87850E-01, 5.50000E-03,0,
 1.098500000E+02, 4.46700E-01, 5.50000E-03,0,
 1.099000000E+02, 3.72300E-01, 4.93050E+00,0,
 1.099500000E+02, 4.08050E-01, 5.50000E-03,0,
 1.100000000E+02, 4.04900E-01, 5.50000E-03,0,
 1.100500000E+02, 4.13300E-01, 4.93050E+00,0,
 1.101000000E+02, 2.80950E-01, 5.50000E-03,0,
 1.101500000E+02, 3.92900E-01, 5.50000E-03,0,
 1.102000000E+02, 4.71100E-01, 4.93050E+00,0,
 1.102500000E+02, 5.41100E-01, 5.50000E-03,0,
 1.103000000E+02, 5.71600E-01, 5.50000E-03,0,
 1.103500000E+02, 6.05700E-01, 5.50000E-03,0,
 1.104000000E+02, 6.19400E-01, 4.93000E+00,0,
 1.104500000E+02, 6.27550E-01, 5.50000E-03,0,
 1.105000000E+02, 6.26750E-01, 5.50000E-03,0,
 1.105500000E+02, 5.91750E-01, 4.93050E+00,0,
 1.106000000E+02, 6.05250E-01, 5.50000E-03,0,
 1.106500000E+02, 5.88550E-01, 5.50000E-03,0,
 1.107000000E+02, 5.82600E-01, 4.93000E+00,0,
 1.107500000E+02, 5.97000E-01, 4.76850E+00,0,
 1.108000000E+02, 6.05050E-01, 5.50000E-03,0,
 1.108500000E+02, 6.12400E-01, 5.50000E-03,0,
 1.109000000E+02, 6.09250E-01, 4.93050E+00,0,
 1.109500000E+02, 6.05150E-01, 5.50000E-03,0,
 1.110000000E+02, 6.03400E-01, 5.50000E-03,0,
 1.110500000E+02, 6.12700E-01, 4.93050E+00,0,
 1.111000000E+02, 6.16250E-01, 5.50000E-03,0,
 1.111500000E+02, 6.28650E-01, 5.50000E-03,0,
 1.112000000E+02, 6.43350E-01, 5.50000E-03,0,
 1.112500000E+02, 6.57700E-01, 4.93050E+00,0,
 1.113000000E+02, 6.60700E-01, 5.50000E-03,0,
 1.113500000E+02, 6.63750E-01, 5.50000E-03,0,
 1.114000000E+02, 6.71100E-01, 5.50000E-03,0,
 1.114500000E+02, 6.68700E-01, 4.93050E+00,0,
 1.115000000E+02, 6.74900E-01, 5.50000E-03,0,
 1.115500000E+02, 6.76300E-01, 5.50000E-03,0,
 1.116000000E+02, 6.74000E-01, 5.50000E-03,0,
 1.116500000E+02, 6.71850E-01, 4.93050E+00,0,
 1.117000000E+02, 6.85950E-01, 5.50000E-03,0,
 1.117500000E+02, 6.94900E-01, 5.50000E-03,0,
 1.118000000E+02, 6.97050E-01, 5.50000E-03,0,
 1.118500000E+02, 7.06050E-01, 4.93050E+00,0,
 1.119000000E+02, 7.06450E-01, 5.50000E-03,0,
 1.119500000E+02, 7.04000E-01, 5.50000E-03,0,
 1.120000000E+02, 6.97600E-01, 5.50000E-03,0,
 1.120500000E+02, 6.88200E-01, 4.93050E+00,0,
 1.121000000E+02, 6.86550E-01, 5.50000E-03,0,
 1.121500000E+02, 6.73700E-01, 5.50000E-03,0,
 1.122000000E+02, 6.73100E-01, 4.93050E+00,0,
 1.122500000E+02, 6.64900E-01, 1.21100E+00,0,
 1.123000000E+02, 6.55700E-01, 5.50000E-03,0,
 1.123500000E+02, 6.49800E-01, 4.93050E+00,0,
 1.124000000E+02, 6.38200E-01, 5.50000E-03,0,
 1.124500000E+02, 6.29700E-01, 5.50000E-03,0,
 1.125000000E+02, 6.16850E-01, 5.50000E-03,0,
 1.125500000E+02, 6.21750E-01, 4.93050E+00,0,
 1.126000000E+02, 6.03800E-01, 5.50000E-03,0,
 1.126500000E+02, 6.01550E-01, 5.50000E-03,0,
 1.127000000E+02, 6.13800E-01, 4.93050E+00,0,
 1.127500000E+02, 5.99550E-01, 5.50000E-03,0,
 1.128000000E+02, 5.88450E-01, 5.50000E-03,0,
 1.128500000E+02, 5.81250E-01, 5.50000E-03,0,
 1.129000000E+02, 5.56550E-01, 4.93050E+00,0,
 1.129500000E+02, 5.41800E-01, 5.50000E-03,0,
 1.130000000E+02, 5.24100E-01, 5.50000E-03,0,
 1.130500000E+02, 5.02850E-01, 4.93000E+00,0,
 1.131000000E+02, 4.73500E-01, 4.93050E+00,0,
 1.131500000E+02, 4.76500E-01, 5.50000E-03,0,
 1.132000000E+02, 4.47900E-01, 5.50000E-03,0,
 1.132500000E+02, 3.96800E-01, 5.50000E-03,0,
 1.133000000E+02, 3.67400E-01, 5.50000E-03,0,
 1.133500000E+02, 2.12800E-01, 5.50000E-03,0,
 1.134000000E+02, 4.08150E-01, 4.93000E+00,0,
 1.134500000E+02, 4.77750E-01, 4.93000E+00,0,
 1.135000000E+02, 4.85900E-01, 4.93000E+00,0,
 1.135500000E+02, 4.76700E-01, 5.50000E-03,0,
 1.136000000E+02, 4.96200E-01, 5.50000E-03,0,
 1.136500000E+02, 5.30650E-01, 5.50000E-03,0,
 1.137000000E+02, 5.44450E-01, 5.50000E-03,0,
 1.137500000E+02, 5.54050E-01, 5.50000E-03,0,
 1.138000000E+02, 5.56700E-01, 5.50000E-03,0,
 1.138500000E+02, 5.52350E-01, 5.50000E-03,0,
 1.139000000E+02, 5.28100E-01, 5.50000E-03,0,
 1.139500000E+02, 5.14300E-01, 5.50000E-03,0,
 1.140000000E+02, 5.08100E-01, 5.50000E-03,0,
 1.140500000E+02, 5.01300E-01, 5.50000E-03,0,
 1.141000000E+02, 5.08550E-01, 5.50000E-03,0,
 1.141500000E+02, 5.19450E-01, 5.50000E-03,0,
 1.142000000E+02, 5.08100E-01, 4.93000E+00,0,
 1.142500000E+02, 5.08050E-01, 4.93000E+00,0,
 1.143000000E+02, 5.28050E-01, 4.93050E+00,0,
 1.143500000E+02, 5.13400E-01, 4.93050E+00,0,
 1.144000000E+02, 4.66900E-01, 4.93000E+00,0,
 1.144500000E+02, 4.10050E-01, 4.93050E+00,0,
 1.145000000E+02, 4.35100E-01, 4.93000E+00,0,
 1.145500000E+02, 4.40600E-01, 4.93050E+00,0,
 1.146000000E+02, 4.22150E-01, 4.93050E+00,0,
 1.146500000E+02, 4.44700E-01, 4.93000E+00,0,
 1.147000000E+02, 4.30200E-01, 4.93050E+00,0,
 1.147500000E+02, 4.47250E-01, 4.93000E+00,0,
 1.148000000E+02, 4.48650E-01, 4.93050E+00,0,
 1.148500000E+02, 4.29200E-01, 4.93050E+00,0,
 1.149000000E+02, 3.64900E-01, 4.93050E+00,0,
 1.149500000E+02, 3.94350E-01, 4.93050E+00,0,
 1.150000000E+02, 4.22000E-01, 4.93050E+00,0,
 1.150500000E+02, 4.45500E-01, 5.50000E-03,0,
 1.151000000E+02, 4.57000E-01, 5.50000E-03,0,
 1.151500000E+02, 4.38600E-01, 5.50000E-03,0,
 1.152000000E+02, 3.52900E-01, 5.50000E-03,0,
 1.152500000E+02, 3.25700E-01, 5.50000E-03,0,
 1.153000000E+02, 3.98200E-01, 5.50000E-03,0,
 1.153500000E+02, 4.29250E-01, 5.50000E-03,0,
 1.154000000E+02, 4.13250E-01, 5.50000E-03,0,
 1.154500000E+02, 3.91750E-01, 5.50000E-03,0,
 1.155000000E+02, 4.06150E-01, 5.50000E-03,0,
 1.155500000E+02, 4.29050E-01, 5.50000E-03,0,
 1.156000000E+02, 4.39850E-01, 5.50000E-03,0,
 1.156500000E+02, 4.67250E-01, 5.50000E-03,0,
 1.157000000E+02, 4.86850E-01, 5.50000E-03,0,
 1.157500000E+02, 4.89750E-01, 5.50000E-03,0,
 1.158000000E+02, 4.98850E-01, 5.50000E-03,0,
 1.158500000E+02, 4.89550E-01, 5.50000E-03,0,
 1.159000000E+02, 4.47950E-01, 5.50000E-03,0,
 1.159500000E+02, 4.45750E-01, 5.50000E-03,0,
 1.160000000E+02, 4.70750E-01, 5.50000E-03,0,
 1.160500000E+02, 4.82050E-01, 5.50000E-03,0,
 1.161000000E+02, 4.87850E-01, 5.50000E-03,0,
 1.161500000E+02, 4.94100E-01, 5.50000E-03,0,
 1.162000000E+02, 4.94450E-01, 5.50000E-03,0,
 1.162500000E+02, 4.79400E-01, 5.50000E-03,0,
 1.163000000E+02, 4.93400E-01, 5.50000E-03,0,
 1.163500000E+02, 4.93550E-01, 5.50000E-03,0,
 1.164000000E+02, 4.91700E-01, 5.50000E-03,0,
 1.164500000E+02, 4.88850E-01, 5.50000E-03,0,
 1.165000000E+02, 4.91000E-01, 5.50000E-03,0,
 1.165500000E+02, 4.93650E-01, 5.50000E-03,0,
 1.166000000E+02, 4.68300E-01, 5.50000E-03,0,
 1.166500000E+02, 4.81900E-01, 5.50000E-03,0,
 1.167000000E+02, 4.87200E-01, 5.50000E-03,0,
 1.167500000E+02, 4.99200E-01, 5.50000E-03,0,
 1.168000000E+02, 4.64000E-01, 5.50000E-03,0,
 1.168500000E+02, 4.73350E-01, 5.50000E-03,0,
 1.169000000E+02, 4.90150E-01, 5.50000E-03,0,
 1.169500000E+02, 4.96700E-01, 5.50000E-03,0,
 1.170000000E+02, 4.98450E-01, 5.50000E-03,0,
 1.170500000E+02, 5.08550E-01, 5.50000E-03,0,
 1.171000000E+02, 5.52250E-01, 5.50000E-03,0,
 1.171500000E+02, 5.56700E-01, 5.50000E-03,0,
 1.172000000E+02, 5.46950E-01, 5.50000E-03,0,
 1.172500000E+02, 5.00600E-01, 5.50000E-03,0,
 1.173000000E+02, 5.16100E-01, 5.50000E-03,0,
 1.173500000E+02, 5.47250E-01, 5.50000E-03,0,
 1.174000000E+02, 5.59400E-01, 5.50000E-03,0,
 1.174500000E+02, 5.49600E-01, 5.50000E-03,0,
 1.175000000E+02, 5.24500E-01, 5.50000E-03,0,
 1.175500000E+02, 5.13450E-01, 5.50000E-03,0,
 1.176000000E+02, 5.12200E-01, 5.50000E-03,0,
 1.176500000E+02, 5.16150E-01, 5.50000E-03,0,
 1.177000000E+02, 4.96650E-01, 5.50000E-03,0,
 1.177500000E+02, 4.94100E-01, 5.00000E-03,0,
 1.178000000E+02, 5.02950E-01, 5.50000E-03,0,
 1.178500000E+02, 5.06450E-01, 5.50000E-03,0,
 1.179000000E+02, 5.21400E-01, 5.50000E-03,0,
 1.179500000E+02, 5.30450E-01, 5.50000E-03,0,
