Time[s],Volt[V],ReceivedPower[dBm],1step_diff[dB]
0.49999999999999994,0.22725500000000004,-68.8676,3.186800000000005
1.0000000000000002,0.18742,-72.0544,4.784400000000005
1.5000000000000007,0.24722500000000003,-67.27,0.755599999999987
2.000000000000001,0.25667,-66.51440000000001,2.3803999999999945
2.499999999999999,0.22691500000000003,-68.8948,3.211199999999991
2.9999999999999973,0.26705499999999993,-65.68360000000001,4.802000000000014
3.4999999999999956,0.32708,-60.8816,1.0180000000000078
3.999999999999994,0.31435499999999994,-61.89960000000001,0.0875999999999948
4.499999999999992,0.31326,-61.9872,1.2772000000000006
4.99999999999999,0.297295,-63.2644,0.29240000000000066
5.4999999999999885,0.29364,-63.5568,1.0907999999999944
5.999999999999987,0.30727499999999996,-62.46600000000001,5.234799999999993
6.499999999999985,0.24184,-67.7008,1.504800000000003
6.999999999999983,0.22302999999999998,-69.2056,4.942400000000006
7.499999999999981,0.28481,-64.2632,3.5567999999999955
7.99999999999998,0.24035,-67.82,6.031199999999984
8.499999999999986,0.3157399999999999,-61.78880000000001,0.16200000000000614
8.999999999999993,0.31776499999999996,-61.6268,1.7064000000000021
9.5,0.296435,-63.333200000000005,0.9916000000000054
10.000000000000007,0.28403999999999996,-64.32480000000001,3.78479999999999
10.500000000000014,0.23673000000000002,-68.1096,3.1835999999999984
11.000000000000021,0.276525,-64.926,1.1195999999999913
11.500000000000028,0.26253000000000004,-66.0456,1.131600000000006
12.000000000000036,0.24838500000000002,-67.1772,3.5575999999999937
12.500000000000043,0.292855,-63.619600000000005,0.8807999999999936
13.00000000000005,0.281845,-64.5004,1.151600000000002
13.500000000000057,0.29624000000000006,-63.3488,1.372399999999999
14.000000000000064,0.27908499999999997,-64.7212,0.9395999999999844
14.500000000000071,0.29083,-63.78160000000001,0.08240000000000691
15.000000000000078,0.29185999999999995,-63.699200000000005,0.7259999999999991
15.500000000000085,0.30093499999999995,-62.973200000000006,3.665999999999997
16.000000000000092,0.25511,-66.6392,0.842000000000013
16.5000000000001,0.265635,-65.79719999999999,0.13239999999998986
17.000000000000107,0.26729,-65.6648,0.4936000000000007
17.500000000000114,0.27346000000000004,-65.1712,0.6527999999999992
18.00000000000012,0.28162000000000004,-64.5184,0.902000000000001
18.500000000000128,0.292895,-63.6164,5.299999999999997
19.000000000000135,0.22664499999999999,-68.9164,2.0171999999999883
19.500000000000142,0.25186000000000003,-66.89920000000001,1.3020000000000067
20.00000000000015,0.268135,-65.5972,2.7811999999999912
20.500000000000156,0.30289999999999995,-62.81600000000001,1.5039999999999836
21.000000000000163,0.2841,-64.32,1.4015999999999877
21.50000000000017,0.30162000000000005,-62.918400000000005,0.41039999999999566
22.000000000000178,0.29649000000000003,-63.3288,0.18959999999999866
22.500000000000185,0.29412000000000005,-63.5184,1.0456000000000003
23.000000000000192,0.30719,-62.4728,0.6920000000000002
23.5000000000002,0.2985400000000001,-63.1648,0.343599999999995
24.000000000000206,0.30283499999999997,-62.821200000000005,0.7276000000000096
24.500000000000213,0.29373999999999995,-63.548800000000014,2.362000000000002
25.00000000000022,0.32326499999999997,-61.18680000000001,0.2775999999999854
25.500000000000227,0.319795,-61.4644,1.1236000000000104
26.000000000000234,0.30575,-62.58800000000001,1.5692000000000093
26.50000000000024,0.325365,-61.0188,0.22240000000000038
27.00000000000025,0.322585,-61.2412,0.3403999999999954
27.500000000000256,0.32684,-60.900800000000004,1.61399999999999
28.000000000000263,0.3066650000000001,-62.514799999999994,0.34799999999999187
28.50000000000027,0.31101500000000004,-62.1668,1.0484000000000009
29.000000000000277,0.29791,-63.2152,0.16519999999999868
29.500000000000284,0.299975,-63.050000000000004,0.7396000000000029
30.00000000000029,0.30922000000000005,-62.3104,0.31280000000000285
30.5000000000003,0.31313,-61.9976,0.14920000000000044
31.000000000000306,0.311265,-62.1468,0.5075999999999894
31.500000000000313,0.31761,-61.63920000000001,1.4820000000000064
32.00000000000032,0.33613499999999996,-60.1572,2.6940000000000026
32.50000000000029,0.30246,-62.851200000000006,0.41080000000000183
33.00000000000026,0.30759499999999995,-62.440400000000004,1.0059999999999931
33.500000000000234,0.29502,-63.4464,0.5975999999999999
34.000000000000206,0.28755000000000003,-64.044,2.916399999999996
34.50000000000018,0.251095,-66.96039999999999,2.1380000000000052
35.00000000000015,0.22437,-69.0984,0.7276000000000096
35.50000000000012,0.21527499999999997,-69.82600000000001,1.0204000000000093
36.00000000000009,0.22803,-68.8056,4.907600000000002
36.500000000000064,0.28937500000000005,-63.897999999999996,2.5615999999999985
37.000000000000036,0.257355,-66.4596,2.249200000000002
37.50000000000001,0.22924000000000003,-68.7088,1.912399999999991
37.99999999999998,0.253145,-66.7964,2.2464000000000084
38.49999999999995,0.281225,-64.55,3.0108000000000033
38.99999999999992,0.24358999999999997,-67.5608,3.0467999999999904
39.49999999999989,0.205505,-70.60759999999999,6.49199999999999
39.999999999999865,0.286655,-64.1156,1.8600000000000065
40.49999999999984,0.30990500000000004,-62.255599999999994,0.8720000000000141
40.99999999999981,0.29900499999999997,-63.12760000000001,0.9908000000000001
41.49999999999978,0.28662,-64.11840000000001,1.9715999999999951
41.99999999999975,0.26197499999999996,-66.09,2.847999999999992
42.49999999999972,0.2975749999999999,-63.24200000000001,0.3300000000000054
42.999999999999694,0.30169999999999997,-62.912000000000006,0.06720000000000681
43.499999999999666,0.30254,-62.8448,1.706000000000003
43.99999999999964,0.323865,-61.138799999999996,1.3220000000000098
44.49999999999961,0.30734,-62.460800000000006,1.0260000000000034
44.99999999999958,0.320165,-61.4348,2.6828000000000074
45.49999999999955,0.28663,-64.11760000000001,2.0312000000000054
45.999999999999524,0.31202,-62.086400000000005,1.2256
46.499999999999496,0.2967,-63.312000000000005,0.8447999999999993
46.99999999999947,0.28613999999999995,-64.1568,1.9624000000000024
47.49999999999944,0.26161,-66.1192,1.5688000000000102
47.99999999999941,0.28121999999999997,-64.5504,1.1171999999999969
48.49999999999938,0.267255,-65.6676,2.372799999999991
48.99999999999935,0.296915,-63.2948,2.597200000000008
49.499999999999325,0.26444999999999996,-65.89200000000001,0.26080000000000325
49.9999999999993,0.26771,-65.6312,3.499999999999986
50.49999999999927,0.22396000000000002,-69.13119999999999,1.1588000000000136
50.99999999999924,0.209475,-70.29,2.9520000000000124
51.49999999999921,0.246375,-67.338,2.2680000000000007
51.99999999999918,0.218025,-69.606,4.1036
52.499999999999154,0.16673,-73.7096,1.2235999999999905
52.999999999999126,0.182025,-72.486,1.6400000000000006
53.4999999999991,0.20252499999999998,-70.846,0.5176000000000016
53.99999999999907,0.196055,-71.3636,1.3611999999999966
54.49999999999904,0.21307,-70.00240000000001,6.960800000000006
54.99999999999901,0.30008,-63.0416,1.4916000000000054
55.499999999998984,0.281435,-64.53320000000001,0.22999999999998977
55.999999999998956,0.27856000000000003,-64.7632,3.8296000000000134
56.49999999999893,0.23068999999999998,-68.59280000000001,0.8391999999999911
56.9999999999989,0.2202,-69.432,3.2972000000000037
57.49999999999887,0.261415,-66.1348,0.6451999999999884
57.99999999999884,0.26948,-65.48960000000001,2.225999999999999
58.49999999999881,0.297305,-63.26360000000001,0.3091999999999899
58.999999999998785,0.29344000000000003,-63.5728,1.8175999999999988
59.49999999999876,0.27071999999999996,-65.3904,0.6639999999999873
59.99999999999873,0.26242000000000004,-66.05439999999999,0.6736000000000075
60.4999999999987,0.254,-66.728,2.471199999999996
60.99999999999867,0.28489,-64.2568,2.1491999999999933
61.49999999999864,0.25802500000000006,-66.40599999999999,1.8691999999999922
61.999999999998614,0.28139000000000003,-64.5368,2.5775999999999897
62.499999999998586,0.31361,-61.95920000000001,1.3792000000000115
62.99999999999856,0.33085000000000003,-60.58,0.49680000000000035
63.49999999999853,0.32464000000000004,-61.0768,3.216799999999999
63.9999999999985,0.28443,-64.2936,1.1195999999999913
64.49999999999848,0.298425,-63.17400000000001,0.12999999999998835
64.99999999999845,0.29680000000000006,-63.303999999999995,3.508800000000015
65.49999999999842,0.25294,-66.81280000000001,3.0956000000000117
65.9999999999984,0.29163500000000003,-63.7172,0.06280000000000285
66.49999999999837,0.29085,-63.78,0.47639999999999816
66.99999999999834,0.284895,-64.2564,1.132400000000004
67.49999999999831,0.27074000000000004,-65.3888,1.7339999999999947
67.99999999999828,0.249065,-67.1228,1.166000000000011
68.49999999999825,0.23449,-68.28880000000001,1.9576000000000136
68.99999999999822,0.25896,-66.3312,0.7844000000000051
69.4999999999982,0.24915499999999996,-67.1156,2.406400000000005
69.99999999999817,0.279235,-64.7092,0.455600000000004
70.49999999999814,0.27354,-65.1648,4.475200000000001
70.99999999999811,0.21760000000000002,-69.64,3.0644000000000062
71.49999999999808,0.255905,-66.5756,2.956000000000003
71.99999999999805,0.21895499999999996,-69.5316,1.5075999999999965
72.49999999999802,0.23779999999999996,-68.024,2.6407999999999987
72.999999999998,0.27081,-65.3832,0.7920000000000016
73.49999999999797,0.28071,-64.5912,0.5224000000000046
73.99999999999794,0.28724000000000005,-64.0688,2.1367999999999867
74.49999999999791,0.31395,-61.93200000000001,2.519999999999989
74.99999999999788,0.28245,-64.452,3.0383999999999958
75.49999999999785,0.32042999999999994,-61.4136,1.1259999999999977
75.99999999999783,0.30635500000000004,-62.5396,1.0999999999999943
76.4999999999978,0.320105,-61.439600000000006,2.2416000000000054
76.99999999999777,0.348125,-59.198,0.030400000000000205
77.49999999999774,0.348505,-59.1676,1.9728000000000065
77.99999999999771,0.323845,-61.14040000000001,0.2015999999999991
78.49999999999768,0.32132499999999997,-61.342000000000006,0.4883999999999986
78.99999999999766,0.31521999999999994,-61.830400000000004,0.6608000000000018
79.49999999999763,0.32348000000000005,-61.1696,1.5116000000000085
79.9999999999976,0.34237500000000004,-59.657999999999994,0.9220000000000113
80.49999999999757,0.33085,-60.580000000000005,2.3407999999999944
80.99999999999754,0.30159,-62.9208,0.3868000000000009
81.49999999999751,0.296755,-63.3076,0.2547999999999959
81.99999999999748,0.29994,-63.052800000000005,1.8447999999999922
82.49999999999746,0.27687999999999996,-64.8976,0.1711999999999989
82.99999999999743,0.27902000000000005,-64.7264,0.7211999999999961
83.4999999999974,0.288035,-64.0052,0.21280000000000143
83.99999999999737,0.285375,-64.218,1.004400000000004
84.49999999999734,0.29793000000000003,-63.2136,1.6944000000000017
84.99999999999731,0.27675,-64.908,0.02200000000000557
85.49999999999729,0.277025,-64.886,2.549599999999998
85.99999999999726,0.30889500000000003,-62.3364,0.0876000000000019
86.49999999999723,0.3078,-62.424,1.3656000000000077
86.9999999999972,0.29073,-63.78960000000001,1.1015999999999906
87.49999999999717,0.27696,-64.8912,2.083199999999998
87.99999999999714,0.30300000000000005,-62.808,0.4924000000000035
88.49999999999712,0.309155,-62.315599999999996,0.500399999999992
88.99999999999709,0.31540999999999997,-61.815200000000004,1.3363999999999976
89.49999999999706,0.298705,-63.1516,0.23920000000000385
89.99999999999703,0.295715,-63.390800000000006,1.3684000000000083
90.499999999997,0.31282000000000004,-62.0224,0.4099999999999966
90.99999999999697,0.31794500000000003,-61.6124,1.0771999999999977
91.49999999999694,0.33141000000000004,-60.5352,0.5887999999999991
91.99999999999692,0.33876999999999996,-59.946400000000004,0.09680000000000177
92.49999999999689,0.33755999999999997,-60.043200000000006,0.6219999999999999
92.99999999999686,0.32978500000000005,-60.665200000000006,0.5100000000000051
93.49999999999683,0.33615999999999996,-60.1552,0.8468000000000089
93.9999999999968,0.325575,-61.00200000000001,0.12120000000000886
94.49999999999677,0.32709,-60.8808,0.25439999999999685
94.99999999999675,0.33026999999999995,-60.626400000000004,1.4887999999999977
95.49999999999672,0.34887999999999997,-59.137600000000006,1.4860000000000042
95.99999999999669,0.367455,-57.6516,1.3052000000000064
96.49999999999666,0.3511399999999999,-58.95680000000001,1.1163999999999916
96.99999999999663,0.337185,-60.0732,0.5499999999999972
97.4999999999966,0.34406,-59.5232,1.4223999999999961
97.99999999999658,0.32628,-60.9456,1.0451999999999941
98.49999999999655,0.33934499999999995,-59.900400000000005,1.3751999999999995
98.99999999999652,0.35653499999999994,-58.525200000000005,0.9627999999999943
99.49999999999649,0.3445,-59.488,0.4135999999999882
99.99999999999646,0.34967,-59.07440000000001,0.11200000000000898
100.49999999999643,0.35107,-58.9624,0.2312000000000083
100.9999999999964,0.34817999999999993,-59.19360000000001,1.838000000000008
101.49999999999638,0.371155,-57.3556,0.18959999999999866
101.99999999999635,0.36878500000000003,-57.5452,0.5575999999999937
102.49999999999632,0.37575499999999995,-56.98760000000001,1.5427999999999926
102.99999999999629,0.35647,-58.5304,0.4007999999999967
103.49999999999626,0.36147999999999997,-58.1296,0.7423999999999964
103.99999999999623,0.37076000000000003,-57.38720000000001,0.9567999999999941
104.4999999999962,0.3588,-58.344,1.1980000000000004
104.99999999999618,0.343825,-59.542,0.9899999999999949
105.49999999999615,0.35619999999999996,-58.55200000000001,0.7036000000000016
105.99999999999612,0.364995,-57.848400000000005,1.2112000000000052
106.49999999999609,0.380135,-56.6372,0.17960000000000065
106.99999999999606,0.38238000000000005,-56.4576,0.7116000000000042
107.49999999999604,0.37348499999999996,-57.169200000000004,0.8951999999999956
107.999999999996,0.362295,-58.0644,0.15040000000001186
108.49999999999598,0.360415,-58.21480000000001,0.7344000000000008
108.99999999999595,0.36959499999999995,-57.48040000000001,0.579199999999993
109.49999999999592,0.36235500000000004,-58.0596,1.0572000000000017
109.9999999999959,0.34914000000000006,-59.116800000000005,0.08319999999999794
110.49999999999586,0.34809999999999997,-59.2,0.028799999999996828
110.99999999999584,0.34774000000000005,-59.2288,2.2179999999999893
111.49999999999581,0.375465,-57.01080000000001,0.20759999999999224
111.99999999999578,0.37287,-57.2184,0.37359999999999616
112.49999999999575,0.37754,-56.844800000000006,0.25439999999999685
112.99999999999572,0.38072,-56.59040000000001,1.4043999999999954
113.4999999999957,0.363165,-57.994800000000005,0.27879999999999683
113.99999999999567,0.35968,-58.2736,1.1195999999999984
114.49999999999564,0.373675,-57.154,0.14240000000000208
114.99999999999561,0.375455,-57.0116,1.1831999999999994
115.49999999999558,0.36066500000000007,-58.1948,1.1019999999999968
115.99999999999555,0.34689000000000003,-59.2968,0.8751999999999924
116.49999999999552,0.35783,-58.421600000000005,2.0208000000000084
116.9999999999955,0.38309000000000004,-56.4008,0.9060000000000059
117.49999999999547,0.371765,-57.3068,0.480799999999995
117.99999999999544,0.377775,-56.82600000000001,1.6123999999999938
118.49999999999541,0.35762,-58.4384,0.030800000000006378
118.99999999999538,0.357235,-58.46920000000001,0.81280000000001
119.49999999999535,0.367395,-57.6564,0.9911999999999921
119.99999999999532,0.37978499999999993,-56.665200000000006,0.02960000000000207
120.4999999999953,0.37941499999999995,-56.69480000000001,0.0163999999999902
120.99999999999527,0.37921,-56.7112,2.028800000000004
121.49999999999524,0.35385,-58.74,2.7963999999999984
121.99999999999521,0.31889500000000004,-61.5364,2.4324000000000012
122.49999999999518,0.34930000000000005,-59.104,1.009600000000006
122.99999999999515,0.33668,-60.113600000000005,2.299199999999999
123.49999999999513,0.36541999999999997,-57.814400000000006,0.3171999999999997
123.9999999999951,0.36145499999999997,-58.131600000000006,2.1147999999999954
124.49999999999507,0.33502,-60.2464,1.0424000000000007
124.99999999999504,0.32199000000000005,-61.2888,0.5756000000000014
125.49999999999501,0.32918500000000006,-60.7132,0.9487999999999985
125.99999999999498,0.341045,-59.7644,0.3359999999999985
126.49999999999496,0.34524499999999997,-59.4284,0.4895999999999958
126.99999999999493,0.339125,-59.918,0.4239999999999995
127.4999999999949,0.33382500000000004,-60.342,1.1076000000000121
127.99999999999487,0.31998,-61.44960000000001,2.1632000000000104
128.49999999999497,0.34702,-59.2864,0.2639999999999958
128.99999999999508,0.35031999999999996,-59.022400000000005,0.3891999999999953
129.4999999999952,0.34545500000000007,-59.4116,0.2779999999999916
129.9999999999953,0.34892999999999996,-59.13360000000001,0.36199999999999477
130.49999999999542,0.34440499999999996,-59.4956,2.0907999999999944
130.99999999999554,0.31827,-61.5864,1.4899999999999878
131.49999999999565,0.336895,-60.09640000000001,4.305599999999991
131.99999999999577,0.283075,-64.402,3.010399999999997
132.49999999999588,0.32070499999999996,-61.391600000000004,0.19320000000000448
132.999999999996,0.32312,-61.1984,0.8344000000000094
133.4999999999961,0.31268999999999997,-62.03280000000001,0.1395999999999944
133.99999999999622,0.310945,-62.1724,1.1532000000000053
134.49999999999633,0.29653,-63.32560000000001,1.7248000000000019
134.99999999999645,0.31809,-61.60080000000001,0.11880000000000024
135.49999999999656,0.31957499999999994,-61.482000000000006,0.015999999999998238
135.99999999999667,0.319775,-61.46600000000001,0.8920000000000101
136.4999999999968,0.330925,-60.574,1.4000000000000057
136.9999999999969,0.31342499999999995,-61.974000000000004,0.48279999999999745
137.49999999999702,0.30739,-62.4568,0.10079999999999956
137.99999999999713,0.30865,-62.356,0.022399999999990428
138.49999999999724,0.30893,-62.33360000000001,0.520399999999988
138.99999999999736,0.30242500000000005,-62.854,0.23160000000000736
139.49999999999747,0.29952999999999996,-63.08560000000001,0.7424000000000035
139.99999999999758,0.30881,-62.3432,0.8132000000000019
140.4999999999977,0.31897499999999995,-61.53,1.3800000000000026
140.9999999999978,0.301725,-62.910000000000004,1.0940000000000012
141.49999999999793,0.28805000000000003,-64.004,0.15680000000000405
141.99999999999804,0.29001,-63.8472,5.795599999999993
142.49999999999815,0.21756499999999995,-69.6428,3.141999999999996
142.99999999999827,0.25684,-66.5008,0.09319999999999595
143.49999999999838,0.258005,-66.4076,2.0220000000000056
143.9999999999985,0.28328000000000003,-64.3856,4.342799999999997
144.4999999999986,0.228995,-68.7284,2.1196000000000055
144.99999999999872,0.20250000000000004,-70.848,0.04240000000000066
145.49999999999883,0.20197000000000004,-70.8904,5.000399999999999
145.99999999999895,0.26447500000000007,-65.89,0.28520000000000323
146.49999999999906,0.26091,-66.1752,0.6788000000000096
146.99999999999918,0.25242499999999995,-66.85400000000001,0.3768000000000171
147.4999999999993,0.257135,-66.4772,1.1036000000000001
147.9999999999994,0.24333999999999997,-67.5808,2.150800000000004
148.49999999999952,0.21645499999999998,-69.7316,3.102400000000003
148.99999999999963,0.17767499999999997,-72.834,0.8212000000000046
149.49999999999974,0.18794000000000005,-72.0128,2.961999999999989
149.99999999999986,0.224965,-69.05080000000001,1.0544000000000153
150.49999999999997,0.238145,-67.9964,2.039199999999994
151.00000000000009,0.263635,-65.9572,2.888399999999997
151.5000000000002,0.29974,-63.0688,1.6947999999999936
152.0000000000003,0.278555,-64.7636,2.1639999999999944
152.50000000000043,0.305605,-62.5996,3.564
153.00000000000054,0.261055,-66.1636,4.973600000000005
153.50000000000065,0.19888499999999998,-71.1372,6.0792
154.00000000000077,0.27487500000000004,-65.058,0.14279999999999404
154.50000000000088,0.27309,-65.2008,1.7291999999999987
155.000000000001,0.294705,-63.4716,0.21999999999999886
155.5000000000011,0.297455,-63.2516,1.1700000000000017
156.00000000000122,0.31208,-62.0816,0.46240000000000236
156.50000000000134,0.31786,-61.6192,0.789200000000001
157.00000000000145,0.327725,-60.83,0.39640000000000697
157.50000000000156,0.32277,-61.226400000000005,0.21880000000000877
158.00000000000168,0.32550500000000004,-61.0076,0.5372000000000057
158.5000000000018,0.31879,-61.5448,0.38239999999999696
159.0000000000019,0.31401,-61.9272,2.2560000000000002
159.50000000000202,0.28581,-64.1832,3.064000000000007
160.00000000000213,0.24750999999999998,-67.2472,0.8556000000000097
160.50000000000225,0.258205,-66.3916,2.0732
161.00000000000236,0.23229000000000002,-68.4648,0.8791999999999973
161.50000000000247,0.24328,-67.5856,5.397599999999997
162.0000000000026,0.17581,-72.9832,1.1803999999999917
162.5000000000027,0.190565,-71.8028,5.508800000000008
163.0000000000028,0.259425,-66.294,0.06720000000001392
163.50000000000293,0.25858499999999995,-66.36120000000001,1.9168000000000092
164.00000000000304,0.282545,-64.4444,1.6827999999999932
164.50000000000315,0.30357999999999996,-62.76160000000001,0.35079999999999245
165.00000000000327,0.299195,-63.1124,3.1240000000000023
165.50000000000338,0.338245,-59.9884,1.9723999999999933
166.0000000000035,0.3629,-58.016000000000005,0.36199999999999477
166.5000000000036,0.358375,-58.378,0.30400000000000205
167.00000000000372,0.354575,-58.682,0.44000000000000483
167.50000000000384,0.3490749999999999,-59.12200000000001,1.3100000000000023
168.00000000000395,0.36544999999999994,-57.812000000000005,0.29359999999999786
168.50000000000406,0.36178000000000005,-58.1056,1.3496000000000024
169.00000000000418,0.37865000000000004,-56.756,0.5712000000000046
169.5000000000043,0.38579,-56.184799999999996,0.5483999999999867
170.0000000000044,0.39264499999999997,-55.63640000000001,0.1827999999999932
170.50000000000452,0.39036,-55.8192,0.9151999999999916
171.00000000000463,0.4018,-54.90400000000001,0.843199999999996
171.50000000000475,0.39125999999999994,-55.74720000000001,0.9243999999999986
172.00000000000486,0.379705,-56.671600000000005,0.44360000000000355
172.50000000000497,0.38525,-56.228,1.8667999999999978
173.0000000000051,0.408585,-54.361200000000004,0.03640000000000043
173.5000000000052,0.40813,-54.397600000000004,0.4644000000000048
174.00000000000531,0.40232499999999993,-54.86200000000001,1.339199999999991
174.50000000000543,0.385585,-56.2012,1.4699999999999989
175.00000000000554,0.36721,-57.6712,0.9711999999999961
175.50000000000566,0.37934999999999997,-56.7,0.9384000000000015
176.00000000000577,0.39108,-55.7616,1.406400000000005
176.50000000000588,0.3735,-57.168000000000006,1.7556000000000012
177.000000000006,0.35155499999999995,-58.92360000000001,0.7316000000000074
177.5000000000061,0.34240999999999994,-59.655200000000015,0.29400000000001114
178.00000000000622,0.346085,-59.361200000000004,1.1195999999999984
178.50000000000634,0.33209,-60.4808,0.7676000000000016
179.00000000000645,0.34168499999999996,-59.7132,1.0879999999999939
179.50000000000657,0.32808500000000007,-60.801199999999994,1.4140000000000086
180.00000000000668,0.31040999999999996,-62.2152,1.436
180.5000000000068,0.32835999999999993,-60.7792,0.23279999999999745
181.0000000000069,0.32545,-61.012,0.9876000000000005
181.50000000000702,0.337795,-60.0244,1.5232000000000028
182.00000000000713,0.318755,-61.5476,3.4971999999999923
182.50000000000725,0.27504000000000006,-65.0448,2.107999999999997
183.00000000000736,0.30139000000000005,-62.9368,4.0732
183.50000000000747,0.35230500000000003,-58.8636,1.304799999999986
184.0000000000076,0.36861499999999997,-57.55880000000001,0.990399999999994
184.5000000000077,0.35623499999999997,-58.549200000000006,0.3451999999999984
185.00000000000782,0.36055,-58.20400000000001,1.2332000000000036
185.50000000000793,0.375965,-56.970800000000004,0.0583999999999989
186.00000000000804,0.37523500000000004,-57.0292,0.9147999999999996
186.50000000000816,0.3638,-57.944,1.6432000000000002
187.00000000000827,0.34326,-59.5872,0.17200000000000415
187.50000000000838,0.3411099999999999,-59.75920000000001,0.6679999999999993
188.0000000000085,0.33275999999999994,-60.427200000000006,3.064399999999999
188.5000000000086,0.37106500000000003,-57.36280000000001,0.12920000000000442
189.00000000000873,0.37268,-57.2336,0.4988000000000028
189.50000000000884,0.378915,-56.7348,0.7180000000000106
190.00000000000895,0.36994,-57.45280000000001,0.5895999999999901
190.50000000000907,0.36257,-58.0424,0.41199999999999903
191.00000000000918,0.36772,-57.6304,1.44639999999999
191.5000000000093,0.3858,-56.18400000000001,0.050400000000010436
192.0000000000094,0.38643,-56.1336,0.2295999999999978
192.50000000000952,0.38930000000000003,-55.904,1.0651999999999973
193.00000000000963,0.37598499999999996,-56.9692,1.5944000000000003
193.50000000000975,0.356055,-58.5636,0.10040000000000049
194.00000000000986,0.35730999999999996,-58.4632,1.5236000000000018
194.50000000000998,0.33826500000000004,-59.9868,0.7080000000000055
195.0000000000101,0.347115,-59.2788,0.15000000000000568
195.5000000000102,0.3489900000000001,-59.12879999999999,1.7595999999999918
196.00000000001032,0.370985,-57.3692,1.529600000000002
196.50000000001043,0.351865,-58.8988,0.5324000000000026
197.00000000001054,0.34521,-59.431200000000004,6.1148000000000025
197.50000000001066,0.26877500000000004,-65.546,5.043199999999999
198.00000000001077,0.331815,-60.50280000000001,0.6432000000000073
198.50000000001089,0.33985499999999996,-59.8596,0.700400000000009
199.000000000011,0.3311,-60.56000000000001,1.56280000000001
199.5000000000111,0.350635,-58.9972,0.6311999999999998
200.00000000001123,0.342745,-59.6284,2.092799999999997
200.50000000001134,0.368905,-57.5356,0.5724000000000018
201.00000000001145,0.37606,-56.9632,0.9648000000000039
201.50000000001157,0.364,-57.928000000000004,0.07480000000000331
202.00000000001168,0.364935,-57.8532,1.631999999999998
202.5000000000118,0.34453500000000004,-59.4852,2.0244
203.0000000000119,0.36984000000000006,-57.4608,1.1036000000000001
203.50000000001202,0.35604500000000006,-58.5644,2.2175999999999974
204.00000000001214,0.383765,-56.3468,0.2132000000000005
204.50000000001225,0.38643,-56.1336,1.4760000000000062
205.00000000001236,0.36798000000000003,-57.60960000000001,0.8155999999999963
205.50000000001248,0.378175,-56.79400000000001,1.0855999999999923
206.0000000000126,0.36460499999999996,-57.8796,2.773999999999994
206.5000000000127,0.32993,-60.6536,0.3760000000000048
207.00000000001282,0.32523,-61.0296,0.19960000000000377
207.50000000001293,0.322735,-61.229200000000006,0.22000000000000597
208.00000000001305,0.325485,-61.0092,2.5771999999999977
208.50000000001316,0.3577,-58.432,0.7135999999999925
209.00000000001327,0.36662,-57.71840000000001,0.02480000000000615
209.5000000000134,0.36693000000000003,-57.6936,1.2576000000000036
210.0000000000135,0.38265000000000005,-56.436,0.5668000000000077
210.5000000000136,0.375565,-57.00280000000001,0.49680000000000035
211.00000000001373,0.38177500000000003,-56.50600000000001,1.5063999999999993
211.50000000001384,0.36294499999999996,-58.01240000000001,0.3148000000000053
212.00000000001396,0.36688,-57.6976,0.7600000000000051
212.50000000001407,0.37638000000000005,-56.937599999999996,0.42080000000000695
213.00000000001418,0.37112,-57.3584,2.127200000000002
213.5000000000143,0.34452999999999995,-59.485600000000005,1.51400000000001
214.0000000000144,0.36345500000000003,-57.971599999999995,2.294000000000004
214.50000000001452,0.33478,-60.2656,1.1119999999999948
215.00000000001464,0.34868,-59.153600000000004,2.1895999999999987
215.50000000001475,0.32131,-61.3432,3.352000000000004
216.00000000001486,0.36321000000000003,-57.9912,0.5407999999999973
216.50000000001498,0.36997,-57.4504,2.0316000000000045
217.0000000000151,0.3953650000000001,-55.4188,1.3800000000000097
217.5000000000152,0.37811500000000003,-56.79880000000001,1.5328000000000017
218.00000000001532,0.35895499999999997,-58.33160000000001,0.7763999999999882
218.50000000001543,0.34925,-59.108,3.224800000000009
219.00000000001555,0.30894000000000005,-62.332800000000006,3.8152000000000044
219.50000000001566,0.35662999999999995,-58.5176,1.181999999999995
220.00000000001577,0.37140500000000004,-57.33560000000001,0.764400000000002
220.5000000000159,0.38095999999999997,-56.571200000000005,0.39799999999999613
221.000000000016,0.37598499999999996,-56.9692,1.0963999999999956
221.50000000001612,0.36228000000000005,-58.065599999999996,0.24679999999998614
222.00000000001623,0.365365,-57.81880000000001,1.926799999999993
222.50000000001634,0.34128,-59.7456,1.8815999999999988
223.00000000001646,0.36479999999999996,-57.864000000000004,1.6120000000000019
223.50000000001657,0.38495,-56.252,0.08040000000000447
224.00000000001668,0.385955,-56.1716,0.3872000000000071
224.5000000000168,0.381115,-56.558800000000005,1.6087999999999951
225.0000000000169,0.361005,-58.1676,1.5403999999999982
225.50000000001702,0.38026,-56.6272,2.2184000000000026
226.00000000001714,0.35252999999999995,-58.845600000000005,0.6683999999999983
226.50000000001725,0.344175,-59.514,1.6707999999999927
227.00000000001737,0.32329,-61.184799999999996,1.040399999999991
227.50000000001748,0.336295,-60.144400000000005,0.5351999999999961
228.0000000000176,0.32960500000000004,-60.6796,0.5343999999999909
228.5000000000177,0.336285,-60.14520000000001,1.2115999999999971
229.00000000001782,0.32114000000000004,-61.35680000000001,5.141599999999997
229.50000000001793,0.25687,-66.4984,2.7020000000000053
230.00000000001805,0.290645,-63.7964,3.951999999999998
230.50000000001816,0.34004500000000004,-59.8444,4.087600000000002
231.00000000001828,0.39114,-55.7568,1.0663999999999945
231.5000000000184,0.40447,-54.690400000000004,0.6167999999999978
232.0000000000185,0.41218000000000005,-54.073600000000006,0.21399999999999864
232.50000000001862,0.40950499999999995,-54.287600000000005,1.6251999999999924
233.00000000001873,0.38919000000000004,-55.9128,0.9915999999999983
233.50000000001884,0.3767950000000001,-56.904399999999995,4.323200000000007
234.00000000001896,0.322755,-61.2276,1.5143999999999949
234.50000000001907,0.3416849999999999,-59.71320000000001,0.6495999999999924
235.00000000001918,0.333565,-60.3628,0.4356000000000009
235.5000000000193,0.33901,-59.9272,1.8072000000000017
236.0000000000194,0.36160000000000003,-58.12,0.6503999999999976
236.50000000001953,0.36973,-57.4696,0.9492000000000047
237.00000000001964,0.357865,-58.418800000000005,1.5564000000000036
237.50000000001975,0.37732,-56.8624,1.5091999999999999
238.00000000001987,0.396185,-55.3532,0.39160000000001105
238.50000000001998,0.39128999999999997,-55.74480000000001,1.2679999999999936
239.0000000000201,0.37544000000000005,-57.012800000000006,3.2419999999999973
239.5000000000202,0.33491499999999996,-60.2548,4.376800000000003
240.00000000002032,0.389625,-55.878,1.3851999999999975
240.50000000002044,0.40693999999999997,-54.4928,0.4799999999999969
241.00000000002055,0.40094,-54.9728,1.552800000000012
241.50000000002066,0.38153,-56.52560000000001,0.7032000000000096
242.00000000002078,0.39032000000000006,-55.8224,0.7051999999999978
242.5000000000209,0.39913499999999996,-55.117200000000004,1.1112000000000037
243.000000000021,0.38524499999999995,-56.22840000000001,1.4191999999999965
243.50000000002112,0.36750499999999997,-57.647600000000004,1.7203999999999908
244.00000000002123,0.34600000000000003,-59.367999999999995,1.9095999999999975
244.50000000002134,0.36987000000000003,-57.4584,0.5647999999999911
245.00000000002146,0.37693,-56.893600000000006,2.171199999999992
245.50000000002157,0.34979000000000005,-59.0648,1.0683999999999898
246.00000000002169,0.36314499999999994,-57.99640000000001,0.2271999999999963
246.5000000000218,0.360305,-58.223600000000005,1.564799999999991
247.0000000000219,0.340745,-59.788399999999996,2.9687999999999946
247.50000000002203,0.377855,-56.8196,1.1552000000000007
248.00000000002214,0.363415,-57.9748,0.9716000000000022
248.50000000002225,0.35126999999999997,-58.946400000000004,2.6108000000000047
249.00000000002237,0.38390500000000005,-56.3356,0.5056000000000012
249.50000000002248,0.377585,-56.8412,1.3348000000000013
250.0000000000226,0.39427,-55.5064,0.22800000000000153
250.5000000000227,0.39142,-55.7344,0.28120000000000545
251.00000000002282,0.38790499999999994,-56.015600000000006,1.2468000000000075
251.50000000002294,0.40349,-54.7688,4.175600000000003
252.00000000002305,0.351295,-58.9444,0.02839999999999776
252.50000000002316,0.3516500000000001,-58.916000000000004,0.4176000000000002
253.00000000002328,0.35686999999999997,-58.498400000000004,1.249600000000001
253.5000000000234,0.37249000000000004,-57.2488,0.32039999999999935
254.0000000000235,0.37649499999999997,-56.9284,0.1875999999999891
254.50000000002362,0.3741500000000001,-57.11599999999999,1.6563999999999837
255.00000000002373,0.394855,-55.45960000000001,0.31279999999998864
255.50000000002385,0.39094500000000004,-55.7724,2.832000000000008
256.00000000002393,0.35554499999999994,-58.604400000000005,0.7848000000000042
256.50000000002404,0.365355,-57.8196,1.6155999999999935
257.00000000002416,0.38554999999999995,-56.20400000000001,2.3299999999999983
257.5000000000243,0.35642500000000005,-58.534000000000006,1.333599999999997
258.0000000000244,0.373095,-57.20040000000001,2.6843999999999895
258.5000000000245,0.33954000000000006,-59.8848,0.03159999999999741
259.0000000000246,0.339935,-59.8532,2.795199999999994
259.5000000000247,0.37487499999999996,-57.05800000000001,0.9484000000000066
260.00000000002484,0.38673,-56.1096,1.0855999999999852
260.50000000002495,0.40029999999999993,-55.024000000000015,0.9495999999999825
261.00000000002507,0.38843,-55.9736,4.437200000000011
261.5000000000252,0.33296499999999996,-60.41080000000001,1.3107999999999862
262.0000000000253,0.31658000000000003,-61.721599999999995,3.647199999999991
262.5000000000254,0.36217,-58.074400000000004,1.6096000000000004
263.0000000000255,0.34205,-59.684000000000005,3.6952
263.50000000002564,0.29586000000000007,-63.379200000000004,1.9236000000000004
264.00000000002575,0.319905,-61.455600000000004,3.1296000000000035
264.50000000002586,0.35902500000000004,-58.326,1.1559999999999988
265.000000000026,0.37347500000000006,-57.17,0.31879999999998887
265.5000000000261,0.37745999999999996,-56.85120000000001,0.1460000000000079
266.0000000000262,0.379285,-56.705200000000005,2.2320000000000064
266.5000000000263,0.407185,-54.4732,1.1983999999999995
267.00000000002643,0.392205,-55.6716,0.24399999999999977
267.50000000002655,0.395255,-55.4276,0.13000000000000256
268.00000000002666,0.39363000000000004,-55.5576,0.031999999999996476
268.5000000000268,0.39403,-55.525600000000004,0.6299999999999955
269.0000000000269,0.401905,-54.89560000000001,3.1215999999999937
269.500000000027,0.362885,-58.0172,2.2475999999999985
270.0000000000271,0.39098,-55.769600000000004,2.4823999999999984
270.5000000000272,0.35995000000000005,-58.252,2.4579999999999984
271.00000000002734,0.390675,-55.794000000000004,1.564799999999991
271.50000000002746,0.41023499999999996,-54.22920000000001,1.2988
272.00000000002757,0.42646999999999996,-52.93040000000001,0.4712000000000103
272.5000000000277,0.43235999999999997,-52.4592,1.0675999999999917
273.0000000000278,0.4190150000000001,-53.526799999999994,2.321200000000019
273.5000000000279,0.38999999999999996,-55.84800000000001,1.3388000000000133
274.000000000028,0.406735,-54.5092,0.7515999999999963
274.50000000002814,0.41613,-53.757600000000004,0.08079999999999643
275.00000000002825,0.41512000000000004,-53.8384,0.27599999999999625
275.50000000002836,0.41857,-53.562400000000004,1.9215999999999909
276.0000000000285,0.39455000000000007,-55.483999999999995,3.072800000000008
276.5000000000286,0.35614,-58.5568,3.278799999999997
277.0000000000287,0.397125,-55.278000000000006,2.0767999999999986
277.5000000000288,0.37116499999999997,-57.354800000000004,0.054799999999993076
278.00000000002893,0.37048000000000003,-57.4096,1.2860000000000085
278.50000000002905,0.35440499999999997,-58.695600000000006,5.830799999999989
279.00000000002916,0.28152,-64.5264,6.943199999999997
279.5000000000293,0.36831,-57.5832,1.0023999999999944
280.0000000000294,0.38083999999999996,-56.5808,0.3932000000000002
280.5000000000295,0.37592499999999995,-56.974000000000004,0.11999999999999034
281.0000000000296,0.37742499999999995,-56.85400000000001,2.142399999999988
281.50000000002973,0.350645,-58.9964,2.0063999999999993
282.00000000002984,0.375725,-56.99,2.1096000000000004
282.50000000002996,0.402095,-54.8804,0.8472000000000008
283.00000000003007,0.391505,-55.7276,0.3423999999999978
283.5000000000302,0.38722500000000004,-56.07,0.28480000000001127
284.0000000000303,0.383665,-56.35480000000001,1.4220000000000041
284.5000000000304,0.4014399999999999,-54.93280000000001,1.573599999999999
285.0000000000305,0.38177,-56.506400000000006,0.09440000000000026
285.50000000003064,0.38059000000000004,-56.60080000000001,2.0176000000000016
286.00000000003075,0.40581000000000006,-54.583200000000005,0.37359999999999616
286.50000000003087,0.40114,-54.9568,1.1387999999999963
287.000000000031,0.41537499999999994,-53.818000000000005,0.20319999999999538
287.5000000000311,0.412835,-54.0212,2.5760000000000005
288.0000000000312,0.380635,-56.5972,0.5896000000000043
288.5000000000313,0.38800500000000004,-56.0076,2.818399999999997
289.00000000003143,0.42323500000000003,-53.1892,0.9519999999999982
289.50000000003155,0.435135,-52.2372,1.3507999999999996
290.00000000003166,0.45202,-50.8864,0.15639999999999787
290.5000000000318,0.4539750000000001,-50.730000000000004,0.284399999999998
291.0000000000319,0.45042,-51.0144,2.656399999999998
291.500000000032,0.417215,-53.6708,4.274800000000006
292.0000000000321,0.36378000000000005,-57.945600000000006,2.6604000000000028
292.50000000003223,0.397035,-55.2852,2.127599999999994
293.00000000003234,0.42363,-53.15760000000001,0.5247999999999919
293.50000000003246,0.41707,-53.6824,1.338799999999999
294.00000000003257,0.433805,-52.3436,1.029200000000003
294.5000000000327,0.44667,-51.3144,2.0131999999999977
295.0000000000328,0.471835,-49.3012,0.6039999999999921
295.5000000000329,0.479385,-48.69720000000001,0.06640000000000867
296.000000000033,0.480215,-48.6308,0.021599999999999397
296.50000000003314,0.479945,-48.6524,0.000800000000005241
297.00000000003325,0.47993500000000006,-48.653200000000005,1.7583999999999946
297.50000000003337,0.457955,-50.4116,1.685600000000008
298.0000000000335,0.4368849999999999,-52.09720000000001,0.7079999999999913
298.5000000000336,0.42803500000000005,-52.8052,1.9356000000000009
299.0000000000337,0.45223,-50.8696,1.9284000000000034
299.5000000000338,0.47633500000000006,-48.941199999999995,1.1039999999999992
300.00000000003394,0.4901350000000001,-47.837199999999996,0.5495999999999981
300.50000000003405,0.49700500000000003,-47.2876,1.4532000000000025
301.00000000003416,0.47884000000000004,-48.7408,0.7408000000000143
301.5000000000343,0.46957999999999994,-49.481600000000014,1.121600000000015
302.0000000000344,0.48360000000000003,-48.36,2.8900000000000006
302.5000000000345,0.447475,-51.25,5.039999999999999
303.0000000000346,0.384475,-56.29,1.6007999999999925
303.50000000003473,0.40448500000000004,-54.68920000000001,0.856800000000014
304.00000000003485,0.4151950000000001,-53.83239999999999,3.329199999999993
304.50000000003496,0.45681000000000005,-50.5032,1.1403999999999925
305.0000000000351,0.47106499999999996,-49.36280000000001,0.5712000000000046
305.5000000000352,0.478205,-48.7916,1.3468000000000018
306.0000000000353,0.46136999999999995,-50.138400000000004,1.8592000000000084
306.5000000000354,0.43812999999999996,-51.99760000000001,4.668399999999991
307.0000000000355,0.37977500000000003,-56.666000000000004,0.9992000000000019
307.50000000003564,0.367285,-57.665200000000006,5.714800000000004
308.00000000003575,0.43872,-51.9504,3.900800000000004
308.50000000003587,0.38996,-55.851200000000006,1.4448000000000008
309.000000000036,0.40801999999999994,-54.406400000000005,0.9423999999999921
309.5000000000361,0.39624000000000004,-55.3488,1.0724000000000018
310.0000000000362,0.38283500000000004,-56.4212,1.2055999999999898
310.5000000000363,0.397905,-55.21560000000001,2.001599999999989
311.00000000003644,0.372885,-57.2172,2.975199999999994
311.50000000003655,0.41007499999999997,-54.242000000000004,0.5532000000000039
312.00000000003666,0.40316,-54.79520000000001,0.7343999999999937
312.5000000000368,0.39398,-55.5296,1.7188000000000017
313.0000000000369,0.372495,-57.248400000000004,0.23639999999999617
313.500000000037,0.37544999999999995,-57.01200000000001,5.248800000000003
314.0000000000371,0.44106000000000006,-51.763200000000005,1.0124000000000066
314.50000000003723,0.428405,-52.77560000000001,1.343599999999995
315.00000000003735,0.4116099999999999,-54.119200000000006,0.9615999999999971
315.50000000003746,0.42363,-53.15760000000001,3.4971999999999923
316.0000000000376,0.37991500000000006,-56.6548,0.6775999999999982
316.5000000000377,0.37144499999999997,-57.3324,2.823599999999999
317.0000000000378,0.40674,-54.5088,2.1263999999999967
317.5000000000379,0.38016,-56.6352,0.3112000000000066
318.000000000038,0.37627,-56.946400000000004,0.9551999999999978
318.50000000003814,0.38820999999999994,-55.991200000000006,0.8892000000000024
319.00000000003826,0.377095,-56.88040000000001,0.23279999999999745
319.50000000003837,0.374185,-57.113200000000006,2.4080000000000013
320.0000000000385,0.40428500000000006,-54.705200000000005,3.0951999999999984
320.5000000000386,0.365595,-57.8004,0.6679999999999993
321.0000000000387,0.35724500000000003,-58.4684,0.4204000000000008
321.5000000000388,0.35198999999999997,-58.8888,2.2875999999999976
322.00000000003894,0.323395,-61.1764,0.4643999999999906
322.50000000003905,0.3292,-60.71200000000001,0.8304000000000045
323.00000000003917,0.33958000000000005,-59.881600000000006,0.6084000000000103
323.5000000000393,0.347185,-59.273199999999996,1.309599999999996
324.0000000000394,0.363555,-57.9636,0.8715999999999937
324.5000000000395,0.37445,-57.092000000000006,4.135599999999997
325.0000000000396,0.322755,-61.2276,7.753999999999998
325.50000000003973,0.41967999999999994,-53.473600000000005,2.701999999999998
326.00000000003985,0.45345499999999994,-50.77160000000001,0.6075999999999979
326.50000000003996,0.46105,-50.16400000000001,0.7739999999999938
327.0000000000401,0.45137499999999997,-50.938,0.5172000000000025
327.5000000000402,0.45784,-50.4208,1.5564000000000036
328.0000000000403,0.4383850000000001,-51.9772,0.7192000000000078
328.5000000000404,0.4473750000000001,-51.257999999999996,2.118399999999994
329.00000000004053,0.473855,-49.1396,0.43599999999999994
329.50000000004064,0.479305,-48.7036,2.077599999999997
330.00000000004076,0.45333500000000004,-50.7812,1.7900000000000063
330.50000000004087,0.43096000000000007,-52.571200000000005,1.2536000000000058
331.000000000041,0.44663,-51.3176,1.279199999999996
331.5000000000411,0.4626200000000001,-50.0384,0.5984000000000052
332.0000000000412,0.4701000000000001,-49.44,0.7011999999999929
332.5000000000413,0.478865,-48.738800000000005,1.206799999999994
333.00000000004144,0.46378,-49.9456,2.476399999999998
333.50000000004155,0.49473500000000004,-47.4692,0.6355999999999966
334.00000000004167,0.50268,-46.833600000000004,1.2856000000000023
334.5000000000418,0.48661000000000004,-48.119200000000006,0.47879999999999256
335.0000000000419,0.480625,-48.598,1.437599999999989
335.500000000042,0.4985949999999999,-47.16040000000001,0.27120000000000744
336.0000000000421,0.501985,-46.8892,0.18799999999999528
336.50000000004223,0.504335,-46.70120000000001,1.3252000000000024
337.00000000004235,0.4877699999999999,-48.02640000000001,0.49399999999999267
337.50000000004246,0.481595,-48.5204,0.7612000000000023
338.0000000000426,0.49111000000000005,-47.7592,1.0899999999999892
338.5000000000427,0.5047349999999999,-46.66920000000001,1.730000000000004
339.0000000000428,0.5263599999999999,-44.93920000000001,0.25440000000000396
339.5000000000429,0.52954,-44.6848,1.3520000000000039
340.00000000004303,0.51264,-46.03680000000001,1.4403999999999897
340.50000000004314,0.49463500000000005,-47.477199999999996,0.25959999999999184
341.00000000004326,0.49788,-47.217600000000004,1.0651999999999973
341.50000000004337,0.511195,-46.15240000000001,1.1055999999999955
342.0000000000435,0.497375,-47.258,1.6208000000000027
342.5000000000436,0.47711499999999996,-48.878800000000005,1.3619999999999948
343.0000000000437,0.46009,-50.2408,0.03999999999999915
343.5000000000438,0.45959000000000005,-50.2808,1.1167999999999978
344.00000000004394,0.4456300000000001,-51.3976,2.6892000000000067
344.50000000004405,0.41201499999999996,-54.086800000000004,1.142400000000002
345.00000000004417,0.39773499999999995,-55.229200000000006,1.4195999999999955
345.5000000000443,0.37999,-56.6488,2.357200000000006
346.0000000000444,0.40945500000000007,-54.291599999999995,2.394399999999983
346.5000000000445,0.43938499999999997,-51.89720000000001,3.5563999999999893
347.0000000000446,0.39493,-55.4536,1.4616000000000042
347.50000000004474,0.37666,-56.915200000000006,5.568799999999996
348.00000000004485,0.44627,-51.34640000000001,1.3800000000000097
348.50000000004496,0.46352000000000004,-49.9664,0.8231999999999999
349.0000000000451,0.45323,-50.7896,0.407199999999996
349.5000000000452,0.45831999999999995,-50.382400000000004,0.03800000000000381
350.0000000000453,0.458795,-50.3444,1.264400000000002
350.5000000000454,0.4746,-49.08,1.7224000000000004
351.00000000004553,0.49613000000000007,-47.3576,0.1255999999999986
351.50000000004565,0.49456000000000006,-47.4832,0.8755999999999986
352.00000000004576,0.4836150000000001,-48.358799999999995,1.0904000000000096
352.5000000000459,0.469985,-49.449200000000005,0.41799999999999216
353.000000000046,0.47520999999999997,-49.03120000000001,0.4227999999999881
353.5000000000461,0.46992500000000004,-49.454,0.911999999999999
354.0000000000462,0.481325,-48.542,1.4799999999999969
354.5000000000463,0.46282500000000004,-50.022,1.166799999999995
355.00000000004644,0.47741,-48.8552,0.20120000000000715
355.50000000004655,0.47992500000000005,-48.653999999999996,1.3399999999999892
356.00000000004667,0.4966749999999999,-47.31400000000001,0.6415999999999968
356.5000000000468,0.48865499999999995,-47.955600000000004,0.5403999999999982
357.0000000000469,0.4819,-48.496,0.6888000000000005
357.500000000047,0.47329,-49.1848,1.7176000000000045
358.0000000000471,0.49476000000000003,-47.4672,1.3615999999999886
358.50000000004724,0.5117799999999999,-46.10560000000001,1.8891999999999882
359.00000000004735,0.48816500000000007,-47.9948,2.0015999999999963
359.50000000004746,0.4631450000000001,-49.996399999999994,1.043600000000012
360.0000000000476,0.45009999999999994,-51.040000000000006,0.48119999999998697
360.5000000000477,0.4561149999999999,-50.55880000000002,0.42919999999998737
361.0000000000478,0.45074999999999993,-50.98800000000001,0.30639999999999645
361.5000000000479,0.44692,-51.2944,2.176400000000001
362.00000000004803,0.41971499999999995,-53.470800000000004,0.2120000000000033
362.50000000004815,0.422365,-53.2588,1.407599999999988
363.00000000004826,0.43995999999999996,-51.85120000000001,0.842000000000013
363.5000000000484,0.450485,-51.0092,1.8076000000000008
364.0000000000485,0.47308000000000006,-49.2016,0.8147999999999982
364.5000000000486,0.46289500000000006,-50.0164,1.1455999999999946
365.0000000000487,0.4485750000000001,-51.16199999999999,1.2587999999999866
365.50000000004883,0.46430999999999994,-49.903200000000005,2.4920000000000044
366.00000000004894,0.49546,-47.4112,0.8451999999999984
366.50000000004906,0.484895,-48.2564,1.3739999999999952
367.00000000004917,0.50207,-46.882400000000004,0.7927999999999997
367.5000000000493,0.51198,-46.089600000000004,1.1388000000000105
368.0000000000494,0.49774499999999994,-47.228400000000015,3.534400000000012
368.5000000000495,0.541925,-43.694,0.2711999999999932
369.0000000000496,0.5385350000000001,-43.965199999999996,1.882400000000004
369.50000000004974,0.515005,-45.8476,2.402000000000008
370.00000000004985,0.48498,-48.24960000000001,0.4504000000000019
370.50000000004997,0.49061000000000005,-47.799200000000006,1.033600000000007
371.0000000000501,0.50353,-46.7656,3.3248000000000033
371.5000000000502,0.46197,-50.0904,2.445999999999998
372.0000000000503,0.49254500000000007,-47.644400000000005,0.14679999999999893
372.5000000000504,0.49437999999999993,-47.497600000000006,1.446799999999996
373.00000000005053,0.476295,-48.9444,1.8656000000000006
373.50000000005065,0.49961500000000003,-47.0788,0.4988000000000028
374.00000000005076,0.50585,-46.58,0.043199999999998795
374.5000000000509,0.50531,-46.6232,0.35599999999999454
375.000000000051,0.50976,-46.2672,0.4468000000000032
375.5000000000511,0.5041749999999999,-46.714000000000006,1.1687999999999974
376.0000000000512,0.5187849999999999,-45.54520000000001,0.20680000000001542
376.50000000005133,0.5213700000000001,-45.33839999999999,1.3400000000000034
377.00000000005144,0.5046200000000001,-46.678399999999996,2.2356000000000122
377.50000000005156,0.476675,-48.91400000000001,1.715999999999994
378.00000000005167,0.455225,-50.63,1.1395999999999944
378.5000000000518,0.44098000000000004,-51.7696,3.9675999999999902
379.0000000000519,0.49057500000000004,-47.80200000000001,0.1127999999999929
379.500000000052,0.49198499999999995,-47.689200000000014,2.5296000000000163
380.0000000000521,0.5236050000000001,-45.1596,0.6983999999999924
380.50000000005224,0.532335,-44.461200000000005,1.3832000000000022
381.00000000005235,0.515045,-45.84440000000001,0.11080000000001178
381.50000000005247,0.5164300000000001,-45.733599999999996,0.6247999999999934
382.0000000000526,0.52424,-45.1088,2.083600000000004
382.5000000000527,0.49819499999999994,-47.192400000000006,1.9551999999999907
383.0000000000528,0.47375500000000004,-49.1476,0.494800000000005
383.5000000000529,0.46757,-49.6424,1.334799999999987
384.00000000005303,0.48425499999999994,-48.307600000000015,0.40039999999999054
384.50000000005315,0.47924999999999995,-48.708000000000006,0.2668000000000035
385.00000000005326,0.482585,-48.4412,0.45719999999999317
385.5000000000534,0.4883,-47.98400000000001,2.9207999999999927
386.0000000000535,0.45179,-50.9048,8.000399999999999
386.5000000000536,0.35178499999999996,-58.9052,9.876399999999997
387.0000000000537,0.47524,-49.028800000000004,1.9239999999999995
387.50000000005383,0.49929000000000007,-47.104800000000004,2.269199999999998
388.00000000005394,0.527655,-44.83560000000001,0.7247999999999948
388.50000000005406,0.518595,-45.5604,0.41080000000000894
389.0000000000542,0.5237300000000001,-45.14959999999999,3.7968000000000046
389.5000000000543,0.4762700000000001,-48.9464,0.8740000000000023
390.0000000000544,0.465345,-49.8204,0.7335999999999956
390.5000000000545,0.4745150000000001,-49.086800000000004,2.6532000000000053
391.0000000000546,0.50768,-46.4336,2.505999999999993
391.50000000005474,0.539005,-43.927600000000005,0.8924000000000021
392.00000000005485,0.55016,-43.0352,0.7459999999999951
392.50000000005497,0.5594849999999999,-42.28920000000001,2.0367999999999995
393.0000000000551,0.534025,-44.32600000000001,1.2623999999999924
393.5000000000552,0.5498049999999999,-43.063600000000015,0.34719999999998663
394.0000000000553,0.545465,-43.4108,1.4515999999999991
394.5000000000554,0.52732,-44.8624,0.5387999999999948
395.00000000005554,0.5205850000000001,-45.401199999999996,0.8644000000000176
395.50000000005565,0.5097799999999999,-46.26560000000001,0.6684000000000125
396.00000000005576,0.518135,-45.5972,0.17040000000000077
396.5000000000559,0.516005,-45.7676,2.014400000000002
397.000000000056,0.49082499999999996,-47.782000000000004,0.6843999999999966
397.5000000000561,0.49937999999999994,-47.09760000000001,3.4272000000000062
398.0000000000562,0.54222,-43.6704,1.6343999999999994
398.50000000005633,0.56265,-42.036,1.533200000000008
399.00000000005645,0.5818150000000001,-40.50279999999999,0.8075999999999937
399.50000000005656,0.59191,-39.6952,0.35240000000001004
400.0000000000567,0.5963150000000002,-39.34279999999999,1.6832000000000207
400.5000000000568,0.5752749999999999,-41.02600000000001,2.0083999999999875
401.0000000000569,0.55017,-43.0344,1.1396000000000086
401.500000000057,0.535925,-44.17400000000001,0.9675999999999974
402.0000000000571,0.52383,-45.141600000000004,1.779200000000003
402.50000000005724,0.50159,-46.92080000000001,1.1604000000000099
403.00000000005736,0.5160950000000001,-45.7604,1.4228000000000023
403.50000000005747,0.49831000000000003,-47.1832,0.8828000000000031
404.0000000000576,0.487275,-48.066,1.3308000000000035
404.5000000000577,0.5039100000000001,-46.7352,3.965600000000009
405.0000000000578,0.45434,-50.70080000000001,2.451600000000006
405.5000000000579,0.484985,-48.2492,3.6212000000000018
406.00000000005804,0.53025,-44.628,1.0611999999999924
406.50000000005815,0.543515,-43.56680000000001,3.3367999999999967
407.00000000005826,0.501805,-46.903600000000004,0.8412000000000006
407.5000000000584,0.49128999999999995,-47.744800000000005,0.41840000000000543
408.0000000000585,0.49652,-47.3264,3.366800000000012
408.5000000000586,0.454435,-50.69320000000001,0.47519999999999385
409.0000000000587,0.448495,-51.168400000000005,0.5064000000000064
409.50000000005883,0.45482500000000003,-50.662,0.04040000000000532
410.00000000005895,0.45431999999999995,-50.702400000000004,1.239600000000003
410.50000000005906,0.469815,-49.4628,3.4696
411.0000000000592,0.513185,-45.9932,1.8119999999999976
411.5000000000593,0.535835,-44.181200000000004,2.750399999999999
412.0000000000594,0.501455,-46.9316,0.8331999999999979
412.5000000000595,0.5118699999999999,-46.098400000000005,2.8468000000000018
413.00000000005963,0.547455,-43.2516,0.20479999999999876
413.50000000005974,0.544895,-43.4564,0.36760000000000304
414.00000000005986,0.5403,-43.824000000000005,0.43200000000000216
414.50000000005997,0.5457,-43.392,3.882799999999996
415.0000000000601,0.497165,-47.2748,0.0876000000000019
415.5000000000602,0.49607,-47.3624,1.0123999999999853
416.0000000000603,0.5087249999999999,-46.350000000000016,0.7812000000000126
416.5000000000604,0.51849,-45.5688,2.544399999999996
417.00000000006054,0.48668500000000003,-48.1132,5.0027999999999935
417.50000000006065,0.5492199999999999,-43.110400000000006,0.8196000000000083
418.00000000006077,0.5594650000000001,-42.2908,2.6055999999999955
418.5000000000609,0.592035,-39.6852,0.274000000000008
419.000000000061,0.5954600000000001,-39.411199999999994,1.4632000000000076
419.5000000000611,0.6137500000000002,-37.947999999999986,1.6128000000000142
420.0000000000612,0.5935900000000001,-39.5608,2.730000000000004
420.50000000006133,0.559465,-42.290800000000004,2.352400000000003
421.00000000006145,0.58887,-39.9384,0.48759999999999337
421.50000000006156,0.594965,-39.45080000000001,0.13880000000000337
422.0000000000617,0.5932299999999999,-39.58960000000001,0.4963999999999871
422.5000000000618,0.587025,-40.086,0.042400000000007765
423.0000000000619,0.586495,-40.128400000000006,0.931999999999995
423.500000000062,0.574845,-41.0604,0.013999999999995794
424.00000000006213,0.57502,-41.046400000000006,1.9236000000000004
424.50000000006224,0.550975,-42.970000000000006,0.8495999999999881
425.00000000006236,0.5403550000000001,-43.819599999999994,0.833999999999989
425.50000000006247,0.5507799999999999,-42.985600000000005,1.9008000000000038
426.0000000000626,0.57454,-41.0848,0.43599999999999994
426.5000000000627,0.57999,-40.6488,2.665200000000006
427.0000000000628,0.5466749999999999,-43.31400000000001,0.6328000000000031
427.5000000000629,0.5387649999999999,-43.94680000000001,0.4811999999999941
428.00000000006304,0.53275,-44.428000000000004,0.38519999999999754
428.50000000006315,0.527935,-44.8132,0.8444000000000074
429.00000000006327,0.5384900000000001,-43.968799999999995,2.3312000000000026
429.5000000000634,0.5093500000000001,-46.3,0.2464000000000084
430.0000000000635,0.50627,-46.546400000000006,5.323999999999991
430.5000000000636,0.5728199999999999,-41.222400000000015,0.8500000000000085
431.0000000000637,0.583445,-40.372400000000006,0.7447999999999908
431.50000000006384,0.5741350000000001,-41.1172,0.5203999999999951
432.00000000006395,0.58064,-40.5968,2.255999999999993
432.50000000006406,0.6088399999999999,-38.34080000000001,1.7535999999999916
433.0000000000642,0.58692,-40.0944,2.696000000000005
433.5000000000643,0.5532199999999999,-42.790400000000005,0.3264000000000138
434.0000000000644,0.5573000000000001,-42.46399999999999,0.28479999999998284
434.5000000000645,0.5608599999999999,-42.17920000000001,0.15520000000000067
435.00000000006463,0.5628,-42.02400000000001,2.2139999999999986
435.50000000006474,0.535125,-44.23800000000001,2.734400000000001
436.00000000006486,0.500945,-46.97240000000001,0.6924000000000063
436.500000000065,0.5096,-46.28,1.0848000000000013
437.0000000000651,0.5231600000000001,-45.1952,2.887999999999984
437.5000000000652,0.5592599999999999,-42.307200000000016,0.4455999999999918
438.0000000000653,0.5536899999999999,-42.75280000000001,1.7308000000000021
438.5000000000654,0.532055,-44.48360000000001,1.3955999999999946
439.00000000006554,0.51461,-45.879200000000004,0.4724000000000004
439.50000000006565,0.520515,-45.406800000000004,1.3564000000000007
440.00000000006577,0.50356,-46.763200000000005,0.06959999999999411
440.5000000000659,0.5044299999999999,-46.69360000000001,0.35079999999999245
441.000000000066,0.500045,-47.0444,0.2020000000000053
441.5000000000661,0.5025700000000001,-46.8424,0.5799999999999983
442.0000000000662,0.50982,-46.2624,0.3684000000000083
442.50000000006634,0.505215,-46.63080000000001,1.038800000000002
443.00000000006645,0.5182,-45.592000000000006,0.4532000000000025
443.50000000006656,0.512535,-46.04520000000001,1.8891999999999953
444.0000000000667,0.48891999999999997,-47.934400000000004,0.11760000000000304
444.5000000000668,0.49039,-47.8168,2.7671999999999954
445.0000000000669,0.52498,-45.049600000000005,0.6535999999999973
445.500000000067,0.51681,-45.7032,0.5487999999999857
446.00000000006713,0.5236699999999999,-45.15440000000002,1.2164000000000144
446.50000000006725,0.538875,-43.938,1.1980000000000004
447.00000000006736,0.5239,-45.136,0.9780000000000015
447.5000000000675,0.511675,-46.114000000000004,2.8707999999999956
